#Rx
# X(m), Y(m), Z(m), Distance(m), Power (dBm) Phase (deg)
1 -28.0028 2.95289 1.4 35.4418 -137.732 123.194
2 -27.0028 2.95289 1.4 34.5021 -151.018 37.355
3 -26.0028 2.95289 1.4 33.5659 -139.309 152.853
4 -25.0028 2.95289 1.4 32.6335 -144.991 76.9317
5 -24.0028 2.95289 1.4 31.7052 -134.492 -63.2292
6 -23.0028 2.95289 1.4 30.7814 -145.556 -45.7154
7 -22.0028 2.95289 1.4 29.8625 -137.088 144.402
8 -21.0028 2.95289 1.4 28.949 -134.113 58.7056
9 -20.0028 2.95289 1.4 28.0414 -114.642 43.4182
10 -19.0028 2.95289 1.4 27.1403 -101.961 -151.333
11 -18.0028 2.95289 1.4 26.2464 -99.6634 -96.0749
12 -17.0028 2.95289 1.4 25.3604 -83.7372 165.831
13 -16.0028 2.95289 1.4 24.4831 -76.4964 -121.6
14 -15.0028 2.95289 1.4 23.6157 -79.7111 16.4546
15 -14.0028 2.95289 1.4 22.7591 -87.5276 41.3093
16 -13.0028 2.95289 1.4 21.9146 -69.382 -150.82
17 -12.0028 2.95289 1.4 21.0838 -69.9512 -133.876
18 -11.0028 2.95289 1.4 20.2682 -65.3938 79.7182
19 -10.0028 2.95289 1.4 19.4699 -65.5664 -64.8616
20 -9.00282 2.95289 1.4 18.691 -69.7788 85.8888
21 -8.00282 2.95289 1.4 17.934 -79.081 133.691
22 -7.00282 2.95289 1.4 17.2019 -71.3127 -80.7162
23 -6.00282 2.95289 1.4 16.4979 -70.8117 149.989
24 -5.00282 2.95289 1.4 15.8258 -71.2356 -67.003
25 -4.00282 2.95289 1.4 15.1898 -76.6262 44.3151
26 -3.00282 2.95289 1.4 14.5947 -99.136 -178.118
27 -2.00282 2.95289 1.4 14.0457 -72.8289 -122.948
28 -1.00282 2.95289 1.4 13.5483 -85.8737 102.172
29 -0.00282 2.95289 1.4 13.1085 -81.2323 111.628
30 0.99718 2.95289 1.4 12.7321 -62.4052 -66.6619
31 1.99718 2.95289 1.4 12.4251 -59.8634 115.429
32 2.99718 2.95289 1.4 12.1926 -60.4953 -12.8636
33 3.99718 2.95289 1.4 12.0389 -62.2766 20.9364
34 4.99718 2.95289 1.4 11.967 -69.7034 120.972
35 5.99718 2.95289 1.4 11.9785 -60.2329 -139.664
36 6.99718 2.95289 1.4 12.0731 -57.6653 -15.8724
37 7.99718 2.95289 1.4 12.2489 -57.2027 89.7344
38 8.99718 2.95289 1.4 12.5025 -63.0467 18.2179
39 9.99718 2.95289 1.4 12.8291 -70.4558 173.105
40 10.9972 2.95289 1.4 13.2236 -65.9803 49.5542
41 11.9972 2.95289 1.4 13.6798 -67.5679 -135.811
42 12.9972 2.95289 1.4 14.192 -65.365 -126.748
43 13.9972 2.95289 1.4 14.7543 -71.6055 -178.032
44 14.9972 2.95289 1.4 15.3611 -76.7037 -135.706
45 15.9972 2.95289 1.4 16.0075 -79.6533 -38.306
46 16.9972 2.95289 1.4 16.6888 -78.6277 -137.551
47 17.9972 2.95289 1.4 17.4009 -81.478 84.456
48 18.9972 2.95289 1.4 18.1402 -81.2732 -112.167
49 19.9972 2.95289 1.4 18.9035 -78.4278 30.5956
50 20.9972 2.95289 1.4 19.688 -76.9006 -141.33
51 21.9972 2.95289 1.4 20.4913 -77.6514 -68.9891
52 22.9972 2.95289 1.4 21.3112 -79.4261 122.843
53 23.9972 2.95289 1.4 22.146 -79.9347 83.5993
54 24.9972 2.95289 1.4 22.9939 -83.6665 -161.877
55 25.9972 2.95289 1.4 23.8536 -77.8226 -87.9548
56 26.9972 2.95289 1.4 24.7239 -87.2632 106.307
57 27.9972 2.95289 1.4 25.6036 -80.4661 -91.0895
58 28.9972 2.95289 1.4 26.4919 -90.6674 70.6129
59 29.9972 2.95289 1.4 27.3879 -80.5133 -131.027
60 -28.0028 3.95289 1.4 35.1169 -130.168 -142.639
61 -27.0028 3.95289 1.4 34.1683 -135.082 -112.761
62 -26.0028 3.95289 1.4 33.2227 -135.266 -115.258
63 -25.0028 3.95289 1.4 32.2804 -133.531 81.7396
64 -24.0028 3.95289 1.4 31.3416 -132.595 -143.466
65 -23.0028 3.95289 1.4 30.4068 -131.324 169.483
66 -22.0028 3.95289 1.4 29.4762 -134.381 -139
67 -21.0028 3.95289 1.4 28.5504 -145.344 -15.7585
68 -20.0028 3.95289 1.4 27.6297 -105.599 -70.6985
69 -19.0028 3.95289 1.4 26.7147 -93.0143 104.292
70 -18.0028 3.95289 1.4 25.806 -96.2437 14.3705
71 -17.0028 3.95289 1.4 24.9043 -80.4033 34.2559
72 -16.0028 3.95289 1.4 24.0104 -86.8816 -95.5752
73 -15.0028 3.95289 1.4 23.1252 -70.416 -120.43
74 -14.0028 3.95289 1.4 22.2498 -76.4381 -93.9894
75 -13.0028 3.95289 1.4 21.3852 -79.6388 49.8705
76 -12.0028 3.95289 1.4 20.533 -69.2037 35.6217
77 -11.0028 3.95289 1.4 19.6946 -75.231 16.1652
78 -10.0028 3.95289 1.4 18.8721 -73.0085 -151.395
79 -9.00282 3.95289 1.4 18.0674 -68.0843 147.005
80 -8.00282 3.95289 1.4 17.2831 -73.2574 -115.55
81 -7.00282 3.95289 1.4 16.5221 -68.7574 44.6471
82 -6.00282 3.95289 1.4 15.7879 -68.0167 78.7601
83 -5.00282 3.95289 1.4 15.0842 -72.6271 20.4311
84 -4.00282 3.95289 1.4 14.4155 -71.8467 170.803
85 -3.00282 3.95289 1.4 13.787 -62.9716 133.337
86 -2.00282 3.95289 1.4 13.2045 -67.6999 118.318
87 -1.00282 3.95289 1.4 12.6741 -71.2416 140.083
88 -0.00282 3.95289 1.4 12.2028 -79.1831 124.405
89 0.99718 3.95289 1.4 11.7977 -57.0724 -91.7206
90 1.99718 3.95289 1.4 11.4656 -54.5739 142.43
91 2.99718 3.95289 1.4 11.2132 -60.8794 -139.656
92 3.99718 3.95289 1.4 11.0459 -57.7898 -35.8182
93 4.99718 3.95289 1.4 10.9675 -61.4592 -148.471
94 5.99718 3.95289 1.4 10.9801 -56.5444 -22.3411
95 6.99718 3.95289 1.4 11.0832 -54.2985 -54.7451
96 7.99718 3.95289 1.4 11.2744 -53.9886 81.1403
97 8.99718 3.95289 1.4 11.5494 -57.0844 60.1572
98 9.99718 3.95289 1.4 11.9023 -64.9082 -8.19907
99 10.9972 3.95289 1.4 12.3264 -65.0886 -11.3037
100 11.9972 3.95289 1.4 12.8146 -66.9076 -125.652
101 12.9972 3.95289 1.4 13.36 -64.8033 -54.9298
102 13.9972 3.95289 1.4 13.9559 -71.9358 20.5346
103 14.9972 3.95289 1.4 14.5959 -77.8142 86.3591
104 15.9972 3.95289 1.4 15.2747 -79.7577 49.679
105 16.9972 3.95289 1.4 15.9873 -75.4665 127.602
106 17.9972 3.95289 1.4 16.7292 -80.209 -39.1945
107 18.9972 3.95289 1.4 17.4969 -79.8142 -137.927
108 19.9972 3.95289 1.4 18.2871 -92.0432 79.399
109 20.9972 3.95289 1.4 19.097 -75.6008 -115.451
110 21.9972 3.95289 1.4 19.9241 -73.1486 39.5083
111 22.9972 3.95289 1.4 20.7664 -81.9622 121.268
112 23.9972 3.95289 1.4 21.6222 -76.0616 -62.1516
113 24.9972 3.95289 1.4 22.4899 -76.4397 104.255
114 25.9972 3.95289 1.4 23.3682 -75.7483 14.0392
115 26.9972 3.95289 1.4 24.2559 -90.8419 39.1875
116 27.9972 3.95289 1.4 25.152 -96.0174 -75.3246
117 28.9972 3.95289 1.4 26.0557 -77.3928 84.6343
118 29.9972 3.95289 1.4 26.9662 -85.996 178.869
119 -28.0028 4.95289 1.4 34.8177 -95.5452 -41.3213
120 -27.0028 4.95289 1.4 33.8607 -140.757 34.0988
121 -26.0028 4.95289 1.4 32.9063 -125.442 -68.7276
122 -25.0028 4.95289 1.4 31.9546 -117.017 -171.348
123 -24.0028 4.95289 1.4 31.006 -128.155 171.02
124 -23.0028 4.95289 1.4 30.0608 -135.721 -107.895
125 -22.0028 4.95289 1.4 29.1192 -136.11 -89.9296
126 -21.0028 4.95289 1.4 28.1816 -144.525 -91.6997
127 -20.0028 4.95289 1.4 27.2484 -88.9826 -54.9972
128 -19.0028 4.95289 1.4 26.3202 -92.3651 72.6458
129 -18.0028 4.95289 1.4 25.3974 -94.0982 99.5949
130 -17.0028 4.95289 1.4 24.4807 -78.5453 -179.201
131 -16.0028 4.95289 1.4 23.5707 -82.2955 43.7046
132 -15.0028 4.95289 1.4 22.6683 -82.0537 171.787
133 -14.0028 4.95289 1.4 21.7745 -75.9699 -36.4087
134 -13.0028 4.95289 1.4 20.8903 -66.6328 38.8945
135 -12.0028 4.95289 1.4 20.017 -72.4062 56.5411
136 -11.0028 4.95289 1.4 19.1561 -79.3877 -169.281
137 -10.0028 4.95289 1.4 18.3093 -74.2465 11.3659
138 -9.00282 4.95289 1.4 17.4788 -74.1815 -51.9937
139 -8.00282 4.95289 1.4 16.6668 -75.6324 -64.6723
140 -7.00282 4.95289 1.4 15.8763 -70.3258 124.651
141 -6.00282 4.95289 1.4 15.1107 -66.3672 -118.232
142 -5.00282 4.95289 1.4 14.3739 -73.7325 -57.2119
143 -4.00282 4.95289 1.4 13.6706 -71.3143 -104.258
144 -3.00282 4.95289 1.4 13.0061 -61.1281 -49.7575
145 -2.00282 4.95289 1.4 12.3869 -62.4749 -49.4821
146 -1.00282 4.95289 1.4 11.8199 -66.8279 -145.188
147 -0.00282 4.95289 1.4 11.3131 -66.5892 -167.548
148 0.99718 4.95289 1.4 10.8748 -59.1351 -85.6597
149 1.99718 4.95289 1.4 10.5137 -56.2997 47.6053
150 2.99718 4.95289 1.4 10.2378 -61.6293 80.0182
151 3.99718 4.95289 1.4 10.0542 -53.2494 12.3556
152 4.99718 4.95289 1.4 9.96812 -63.8059 173.272
153 5.99718 4.95289 1.4 9.98193 -61.3661 148.389
154 6.99718 4.95289 1.4 10.0953 -54.7503 -130.331
155 7.99718 4.95289 1.4 10.3048 -54.6504 93.3435
156 8.99718 4.95289 1.4 10.605 -55.1046 -163.173
157 9.99718 4.95289 1.4 10.9882 -73.8296 96.2879
158 10.9972 4.95289 1.4 11.4462 -59.271 92.6528
159 11.9972 4.95289 1.4 11.9705 -69.5597 -11.7161
160 12.9972 4.95289 1.4 12.5526 -55.1193 92.9178
161 13.9972 4.95289 1.4 13.1849 -64.5168 172.711
162 14.9972 4.95289 1.4 13.8607 -82.4569 122.695
163 15.9972 4.95289 1.4 14.5737 -71.8821 -77.6581
164 16.9972 4.95289 1.4 15.3189 -78.7227 2.28324
165 17.9972 4.95289 1.4 16.0918 -80.769 -172.855
166 18.9972 4.95289 1.4 16.8885 -76.9716 102.895
167 19.9972 4.95289 1.4 17.7058 -79.335 43.8325
168 20.9972 4.95289 1.4 18.5411 -79.2021 -146.388
169 21.9972 4.95289 1.4 19.3919 -72.5117 101.569
170 22.9972 4.95289 1.4 20.2564 -76.1781 -96.8692
171 23.9972 4.95289 1.4 21.1329 -67.795 -98.348
172 24.9972 4.95289 1.4 22.0198 -67.7207 140.087
173 25.9972 4.95289 1.4 22.9161 -75.2472 -14.0999
174 26.9972 4.95289 1.4 23.8207 -78.1764 72.5687
175 27.9972 4.95289 1.4 24.7326 -89.4846 -101.678
176 28.9972 4.95289 1.4 25.651 -85.6053 61.4862
177 29.9972 4.95289 1.4 26.5754 -87.7652 -168.08
178 -28.0028 5.95289 1.4 34.5449 -100.649 140.626
179 -27.0028 5.95289 1.4 33.5801 -93.5156 -33.1329
180 -26.0028 5.95289 1.4 32.6175 -94.5844 72.3287
181 -25.0028 5.95289 1.4 31.6572 -111.834 157.328
182 -24.0028 5.95289 1.4 30.6994 -130.249 -91.8436
183 -23.0028 5.95289 1.4 29.7444 -136.457 -13.9206
184 -22.0028 5.95289 1.4 28.7924 -135.918 -105.671
185 -21.0028 5.95289 1.4 27.8438 -137.856 -2.01535
186 -20.0028 5.95289 1.4 26.8989 -84.2972 -135.028
187 -19.0028 5.95289 1.4 25.9582 -85.4308 -50.6321
188 -18.0028 5.95289 1.4 25.0221 -85.8655 -13.9248
189 -17.0028 5.95289 1.4 24.0911 -79.6424 122.239
190 -16.0028 5.95289 1.4 23.1658 -92.5069 63.8482
191 -15.0028 5.95289 1.4 22.247 -90.6129 20.3564
192 -14.0028 5.95289 1.4 21.3356 -89.7512 141.087
193 -13.0028 5.95289 1.4 20.4324 -102.229 -94.5534
194 -12.0028 5.95289 1.4 19.5386 -77.3476 12.5957
195 -11.0028 5.95289 1.4 18.6556 -75.4167 -171.113
196 -10.0028 5.95289 1.4 17.7851 -67.2115 129.562
197 -9.00282 5.95289 1.4 16.9288 -77.1146 -156.375
198 -8.00282 5.95289 1.4 16.0891 -72.4103 123.584
199 -7.00282 5.95289 1.4 15.2687 -67.577 70.7634
200 -6.00282 5.95289 1.4 14.471 -69.7859 -39.3802
201 -5.00282 5.95289 1.4 13.6998 -68.0886 99.2963
202 -4.00282 5.95289 1.4 12.96 -63.7088 -175.638
203 -3.00282 5.95289 1.4 12.2571 -65.2983 59.2842
204 -2.00282 5.95289 1.4 11.5979 -61.8131 128.219
205 -1.00282 5.95289 1.4 10.9903 -67.1487 148.938
206 -0.00282 5.95289 1.4 10.4433 -79.289 -99.9854
207 0.99718 5.95289 1.4 9.96687 -51.532 175.147
208 1.99718 5.95289 1.4 9.57152 -64.4538 -46.7928
209 2.99718 5.95289 1.4 9.26765 -68.4109 158.914
210 3.99718 5.95289 1.4 9.06448 -56.1104 11.6173
211 4.99718 5.95289 1.4 8.96885 -56.3707 49.8383
212 5.99718 5.95289 1.4 8.9842 -67.5127 176.728
213 6.99718 5.95289 1.4 9.10996 -54.6131 -24.1427
214 7.99718 5.95289 1.4 9.34167 -56.5632 20.7763
215 8.99718 5.95289 1.4 9.67172 -52.0267 -157.45
216 9.99718 5.95289 1.4 10.0905 -87.0514 -154.47
217 10.9972 5.95289 1.4 10.5874 -63.5216 141.425
218 11.9972 5.95289 1.4 11.1521 -61.0597 -55.6667
219 12.9972 5.95289 1.4 11.7747 -59.3538 -90.7627
220 13.9972 5.95289 1.4 12.4467 -60.2691 -170.048
221 14.9972 5.95289 1.4 13.1604 -64.2783 -121.89
222 15.9972 5.95289 1.4 13.9094 -85.0665 10.0873
223 16.9972 5.95289 1.4 14.6883 -94.7586 18.7688
224 17.9972 5.95289 1.4 15.4926 -84.7727 -115.717
225 18.9972 5.95289 1.4 16.3186 -78.9675 -65.1199
226 19.9972 5.95289 1.4 17.1631 -76.739 -88.366
227 20.9972 5.95289 1.4 18.0235 -101.018 139.152
228 21.9972 5.95289 1.4 18.8977 -73.5507 85.5255
229 22.9972 5.95289 1.4 19.7838 -72.3861 127.211
230 23.9972 5.95289 1.4 20.6803 -84.4575 -69.0982
231 24.9972 5.95289 1.4 21.5859 -75.1319 -94.5616
232 25.9972 5.95289 1.4 22.4995 -86.383 -162.118
233 26.9972 5.95289 1.4 23.4201 -75.0188 82.3914
234 27.9972 5.95289 1.4 24.347 -75.6517 173.164
235 28.9972 5.95289 1.4 25.2795 -90.7596 179.389
236 29.9972 5.95289 1.4 26.2169 -79.9143 -106.703
237 -28.0028 6.95289 1.4 34.2991 -104.064 -76.8972
238 -27.0028 6.95289 1.4 33.3272 -99.2968 -5.40928
239 -26.0028 6.95289 1.4 32.357 -110.48 -84.1434
240 -25.0028 6.95289 1.4 31.3887 -80.6185 56.7042
241 -24.0028 6.95289 1.4 30.4225 -127.354 -84.1079
242 -23.0028 6.95289 1.4 29.4585 -121.625 102.246
243 -22.0028 6.95289 1.4 28.497 -134.636 -62.565
244 -21.0028 6.95289 1.4 27.5382 -119.329 131.131
245 -20.0028 6.95289 1.4 26.5825 -90.6129 174.825
246 -19.0028 6.95289 1.4 25.6302 -85.501 80.264
247 -18.0028 6.95289 1.4 24.6816 -84.8507 16.3047
248 -17.0028 6.95289 1.4 23.7372 -94.7417 127.744
249 -16.0028 6.95289 1.4 22.7976 -98.2692 84.3009
250 -15.0028 6.95289 1.4 21.8634 -95.2571 5.42013
251 -14.0028 6.95289 1.4 20.9352 -82.6993 -95.5845
252 -13.0028 6.95289 1.4 20.014 -89.3896 12.4011
253 -12.0028 6.95289 1.4 19.1006 -81.9424 4.48076
254 -11.0028 6.95289 1.4 18.1964 -69.2461 121.842
255 -10.0028 6.95289 1.4 17.3027 -68.3548 146.743
256 -9.00282 6.95289 1.4 16.4213 -66.8204 -47.0143
257 -8.00282 6.95289 1.4 15.5543 -71.3794 -75.255
258 -7.00282 6.95289 1.4 14.7041 -70.7023 -49.7897
259 -6.00282 6.95289 1.4 13.874 -75.1781 -126.246
260 -5.00282 6.95289 1.4 13.0676 -68.8925 158.819
261 -4.00282 6.95289 1.4 12.2898 -64.0171 -59.5657
262 -3.00282 6.95289 1.4 11.5461 -66.8547 -37.8362
263 -2.00282 6.95289 1.4 10.8438 -71.786 -95.2798
264 -1.00282 6.95289 1.4 10.1914 -68.7124 -48.1433
265 -0.00282 6.95289 1.4 9.59895 -70.6231 -127.934
266 0.99718 6.95289 1.4 9.07829 -60.1568 -158.002
267 1.99718 6.95289 1.4 8.64239 -72.3882 -137.134
268 2.99718 6.95289 1.4 8.3046 -66.8434 80.8102
269 3.99718 6.95289 1.4 8.07724 -58.8868 113.063
270 4.99718 6.95289 1.4 7.96977 -55.4229 31.7147
271 5.99718 6.95289 1.4 7.98704 -55.6867 -169.847
272 6.99718 6.95289 1.4 8.12824 -55.8538 27.4454
273 7.99718 6.95289 1.4 8.38712 -64.7695 38.6472
274 8.99718 6.95289 1.4 8.75324 -70.4349 147.77
275 9.99718 6.95289 1.4 9.21383 -67.8172 100.385
276 10.9972 6.95289 1.4 9.75552 -63.8903 47.022
277 11.9972 6.95289 1.4 10.3656 -64.0875 99.1345
278 12.9972 6.95289 1.4 11.0327 -60.55 -38.8704
279 13.9972 6.95289 1.4 11.7472 -62.5211 76.1204
280 14.9972 6.95289 1.4 12.5009 -69.3151 -68.8567
281 15.9972 6.95289 1.4 13.2871 -73.4191 51.2631
282 16.9972 6.95289 1.4 14.1005 -89.678 -92.2626
283 17.9972 6.95289 1.4 14.9365 -83.4131 139.354
284 18.9972 6.95289 1.4 15.7916 -89.294 59.5191
285 19.9972 6.95289 1.4 16.6628 -77.572 49.9888
286 20.9972 6.95289 1.4 17.5478 -74.3079 0.683993
287 21.9972 6.95289 1.4 18.4445 -80.4199 -101.737
288 22.9972 6.95289 1.4 19.3514 -68.7526 160.99
289 23.9972 6.95289 1.4 20.267 -65.4055 43.7251
290 24.9972 6.95289 1.4 21.1903 -78.1969 -129.044
291 25.9972 6.95289 1.4 22.1202 -77.8579 120.964
292 26.9972 6.95289 1.4 23.056 -82.8291 -41.6747
293 27.9972 6.95289 1.4 23.9969 -72.6124 -11.838
294 28.9972 6.95289 1.4 24.9425 -85.5859 78.1752
295 29.9972 6.95289 1.4 25.8922 -86.1317 116.968
296 -28.0028 7.95289 1.4 34.0808 -92.4941 41.7712
297 -27.0028 7.95289 1.4 33.1026 -97.8598 168.023
298 -26.0028 7.95289 1.4 32.1256 -92.6984 135.133
299 -25.0028 7.95289 1.4 31.1501 -82.4895 33.1464
300 -24.0028 7.95289 1.4 30.1762 -120.373 171.038
301 -23.0028 7.95289 1.4 29.2041 -110.642 128.463
302 -22.0028 7.95289 1.4 28.234 -128.952 -129.437
303 -21.0028 7.95289 1.4 27.2659 -122.036 145.228
304 -20.0028 7.95289 1.4 26.3003 -86.2093 -148.81
305 -19.0028 7.95289 1.4 25.3374 -85.8219 -170.429
306 -18.0028 7.95289 1.4 24.3774 -85.7689 -71.5765
307 -17.0028 7.95289 1.4 23.4208 -92.818 24.7807
308 -16.0028 7.95289 1.4 22.468 -81.0702 -96.1598
309 -15.0028 7.95289 1.4 21.5194 -76.9993 -86.9574
310 -14.0028 7.95289 1.4 20.5757 -87.2531 167.828
311 -13.0028 7.95289 1.4 19.6376 -78.2391 2.30118
312 -12.0028 7.95289 1.4 18.7059 -76.9572 -22.3401
313 -11.0028 7.95289 1.4 17.7816 -84.9825 -62.6213
314 -10.0028 7.95289 1.4 16.866 -68.4161 -31.916
315 -9.00282 7.95289 1.4 15.9605 -70.9782 -16.418
316 -8.00282 7.95289 1.4 15.067 -67.8943 -140.174
317 -7.00282 7.95289 1.4 14.1876 -79.7695 15.0987
318 -6.00282 7.95289 1.4 13.3253 -72.7177 91.1038
319 -5.00282 7.95289 1.4 12.4836 -70.6591 28.5651
320 -4.00282 7.95289 1.4 11.6668 -67.4374 -32.546
321 -3.00282 7.95289 1.4 10.8807 -73.7333 126.884
322 -2.00282 7.95289 1.4 10.1324 -64.5085 -138.046
323 -1.00282 7.95289 1.4 9.43087 -67.2996 129.51
324 -0.00282 7.95289 1.4 8.78731 -64.5234 -173.844
325 0.99718 7.95289 1.4 8.21537 -51.6246 -61.5135
326 1.99718 7.95289 1.4 7.73096 -56.6771 -74.8196
327 2.99718 7.95289 1.4 7.35141 -60.9425 59.4723
328 3.99718 7.95289 1.4 7.09357 -51.9399 146.542
329 4.99718 7.95289 1.4 6.97095 -53.4396 97.924
330 5.99718 7.95289 1.4 6.99068 -56.9007 -99.7536
331 6.99718 7.95289 1.4 7.15158 -54.909 35.8188
332 7.99718 7.95289 1.4 7.4445 -53.0356 -106.883
333 8.99718 7.95289 1.4 7.85469 -61.635 84.4838
334 9.99718 7.95289 1.4 8.3649 -66.2274 -174.313
335 10.9972 7.95289 1.4 8.95807 -57.5883 -48.6561
336 11.9972 7.95289 1.4 9.61886 -59.7383 -162.597
337 12.9972 7.95289 1.4 10.3343 -59.6939 -112.929
338 13.9972 7.95289 1.4 11.0938 -69.36 -144.539
339 14.9972 7.95289 1.4 11.889 -76.6642 47.1689
340 15.9972 7.95289 1.4 12.7132 -80.6175 152.908
341 16.9972 7.95289 1.4 13.561 -81.2246 -133.2
342 17.9972 7.95289 1.4 14.4283 -82.971 150.156
343 18.9972 7.95289 1.4 15.3118 -83.0355 -159.37
344 19.9972 7.95289 1.4 16.2088 -74.9273 154.687
345 20.9972 7.95289 1.4 17.1173 -74.5267 19.5923
346 21.9972 7.95289 1.4 18.0354 -67.2852 -21.8067
347 22.9972 7.95289 1.4 18.9619 -68.7942 -143.632
348 23.9972 7.95289 1.4 19.8954 -68.548 65.026
349 24.9972 7.95289 1.4 20.8352 -69.9148 -82.7441
350 25.9972 7.95289 1.4 21.7802 -83.1893 -135.746
351 26.9972 7.95289 1.4 22.73 -79.8285 16.7407
352 27.9972 7.95289 1.4 23.684 -80.6957 -91.2443
353 28.9972 7.95289 1.4 24.6415 -88.6418 70.6434
354 29.9972 7.95289 1.4 25.6024 -79.3337 -50.2234
355 -28.0028 8.95289 1.4 33.8907 -81.8058 -132.399
356 -27.0028 8.95289 1.4 32.9068 -81.2325 143.204
357 -26.0028 8.95289 1.4 31.9238 -82.0963 47.4879
358 -25.0028 8.95289 1.4 30.942 -87.7463 50.2657
359 -24.0028 8.95289 1.4 29.9613 -98.2697 43.374
360 -23.0028 8.95289 1.4 28.982 -116.415 -117.567
361 -22.0028 8.95289 1.4 28.0042 -111.926 -133.23
362 -21.0028 8.95289 1.4 27.0279 -110.112 -126.491
363 -20.0028 8.95289 1.4 26.0535 -97.4408 -29.8389
364 -19.0028 8.95289 1.4 25.0811 -86.4168 101.227
365 -18.0028 8.95289 1.4 24.1109 -106.698 -91.1473
366 -17.0028 8.95289 1.4 23.1433 -80.4629 148.583
367 -16.0028 8.95289 1.4 22.1785 -82.0827 -165.796
368 -15.0028 8.95289 1.4 21.217 -82.169 105.906
369 -14.0028 8.95289 1.4 20.2592 -85.5556 65.0466
370 -13.0028 8.95289 1.4 19.3058 -85.2105 135.385
371 -12.0028 8.95289 1.4 18.3572 -80.4885 -39.2564
372 -11.0028 8.95289 1.4 17.4145 -82.5275 -177.326
373 -10.0028 8.95289 1.4 16.4784 -76.2829 -176.408
374 -9.00282 8.95289 1.4 15.5504 -71.6194 169.961
375 -8.00282 8.95289 1.4 14.6318 -69.0426 165.795
376 -7.00282 8.95289 1.4 13.7246 -70.2999 -15.9466
377 -6.00282 8.95289 1.4 12.8312 -76.0028 59.0786
378 -5.00282 8.95289 1.4 11.9548 -76.3625 -171.633
379 -4.00282 8.95289 1.4 11.0992 -68.9694 157.778
380 -3.00282 8.95289 1.4 10.2697 -68.9811 68.9106
381 -2.00282 8.95289 1.4 9.47327 -62.285 -29.6276
382 -1.00282 8.95289 1.4 8.71885 -62.4109 66.1141
383 -0.00282 8.95289 1.4 8.01834 -59.5968 -84.2462
384 0.99718 8.95289 1.4 7.3871 -55.3792 -140.849
385 1.99718 8.95289 1.4 6.84432 -62.7147 55.2364
386 2.99718 8.95289 1.4 6.4125 -63.5885 11.1155
387 3.99718 8.95289 1.4 6.1152 -52.7097 41.3642
388 4.99718 8.95289 1.4 5.97253 -60.1596 -144.384
389 5.99718 8.95289 1.4 5.99555 -57.1202 -55.9722
390 6.99718 8.95289 1.4 6.1824 -55.5483 -28.1766
391 7.99718 8.95289 1.4 6.51902 -59.9409 162.18
392 8.99718 8.95289 1.4 6.98377 -55.7543 -173.429
393 9.99718 8.95289 1.4 7.55305 -66.4437 100.458
394 10.9972 8.95289 1.4 8.20512 -55.5683 36.4312
395 11.9972 8.95289 1.4 8.92185 -66.1265 133.161
396 12.9972 8.95289 1.4 9.68891 -61.6897 7.42422
397 13.9972 8.95289 1.4 10.4953 -68.296 162.354
398 14.9972 8.95289 1.4 11.3325 -67.4246 33.3938
399 15.9972 8.95289 1.4 12.1943 -67.1023 -128.608
400 16.9972 8.95289 1.4 13.0758 -77.0056 25.2048
401 17.9972 8.95289 1.4 13.9733 -83.0596 8.70274
402 18.9972 8.95289 1.4 14.8838 -83.9433 52.3118
403 19.9972 8.95289 1.4 15.8052 -68.4652 -163.664
