#Rx
# X(m), Y(m), Z(m), Distance(m), Power (dBm) Phase (deg)
1 -28.0028 2.95289 1.4 25.0488 -91.849 -92.224
2 -27.0028 2.95289 1.4 24.2058 -103.356 42.2749
3 -26.0028 2.95289 1.4 23.3753 -87.0966 -42.662
4 -25.0028 2.95289 1.4 22.5584 -95.3866 -115.652
5 -24.0028 2.95289 1.4 21.7569 -91.8924 52.8471
6 -23.0028 2.95289 1.4 20.9725 -105.363 136.858
7 -22.0028 2.95289 1.4 20.2071 -91.5511 -116.17
8 -21.0028 2.95289 1.4 19.4629 -95.8855 -32.216
9 -20.0028 2.95289 1.4 18.7427 -97.1913 102.485
10 -19.0028 2.95289 1.4 18.049 -80.5345 172.069
11 -18.0028 2.95289 1.4 17.3853 -85.3432 -22.1029
12 -17.0028 2.95289 1.4 16.755 -69.2935 104.134
13 -16.0028 2.95289 1.4 16.162 -71.3358 11.6677
14 -15.0028 2.95289 1.4 15.6106 -74.2132 142.354
15 -14.0028 2.95289 1.4 15.1053 -72.6658 -147.042
16 -13.0028 2.95289 1.4 14.651 -70.9483 -72.4552
17 -12.0028 2.95289 1.4 14.2525 -86.4472 123.957
18 -11.0028 2.95289 1.4 13.9145 -67.8367 118.003
19 -10.0028 2.95289 1.4 13.6416 -63.453 12.6209
20 -9.00282 2.95289 1.4 13.4378 -59.3191 -119.597
21 -8.00282 2.95289 1.4 13.3062 -56.3328 131.304
22 -7.00282 2.95289 1.4 13.249 -51.1442 19.8427
23 -6.00282 2.95289 1.4 13.2671 -47.605 -15.3685
24 -5.00282 2.95289 1.4 13.3603 -52.8154 -123.545
25 -4.00282 2.95289 1.4 13.527 -64.8326 48.3331
26 -3.00282 2.95289 1.4 13.7644 -80.1065 108.136
27 -2.00282 2.95289 1.4 14.0691 -56.4765 74.4817
28 -1.00282 2.95289 1.4 14.4368 -63.1926 176.179
29 -0.00282 2.95289 1.4 14.8628 -75.7784 114.673
30 0.99718 2.95289 1.4 15.3422 -71.4681 16.6806
31 1.99718 2.95289 1.4 15.8702 -71.9068 -165.159
32 2.99718 2.95289 1.4 16.4421 -63.584 61.3951
33 3.99718 2.95289 1.4 17.0536 -63.6694 -49.2227
34 4.99718 2.95289 1.4 17.7004 -63.5049 127.691
35 5.99718 2.95289 1.4 18.3789 -65.2432 -128.109
36 6.99718 2.95289 1.4 19.0858 -66.9433 -59.7789
37 7.99718 2.95289 1.4 19.8178 -67.4603 -83.6897
38 8.99718 2.95289 1.4 20.5725 -63.8861 -166.22
39 9.99718 2.95289 1.4 21.3473 -63.1422 54.8622
40 10.9972 2.95289 1.4 22.1402 -67.2229 -156.675
41 11.9972 2.95289 1.4 22.9493 -68.5148 -2.83759
42 12.9972 2.95289 1.4 23.7729 -68.9968 70.2645
43 13.9972 2.95289 1.4 24.6096 -66.9405 162.229
44 14.9972 2.95289 1.4 25.458 -72.4639 135.204
45 15.9972 2.95289 1.4 26.3172 -65.8594 65.8848
46 16.9972 2.95289 1.4 27.1859 -78.7944 -62.0425
47 17.9972 2.95289 1.4 28.0634 -67.0486 160.845
48 18.9972 2.95289 1.4 28.9488 -67.7584 -6.37571
49 19.9972 2.95289 1.4 29.8415 -79.3659 -175.192
50 20.9972 2.95289 1.4 30.7408 -76.7598 -9.6865
51 21.9972 2.95289 1.4 31.6461 -80.2362 -111.885
52 22.9972 2.95289 1.4 32.557 -83.417 60.6032
53 23.9972 2.95289 1.4 33.473 -75.3798 -131.341
54 24.9972 2.95289 1.4 34.3936 -79.8003 -31.3243
55 25.9972 2.95289 1.4 35.3186 -76.215 104.978
56 26.9972 2.95289 1.4 36.2475 -78.9845 -131.449
57 27.9972 2.95289 1.4 37.1801 -74.34 100.526
58 28.9972 2.95289 1.4 38.1162 -80.0711 -169.348
59 29.9972 2.95289 1.4 39.0554 -75.58 -14.2733
60 -28.0028 3.95289 1.4 24.5346 -91.7119 -26.0242
61 -27.0028 3.95289 1.4 23.6734 -102.882 92.9944
62 -26.0028 3.95289 1.4 22.8234 -87.7986 51.9907
63 -25.0028 3.95289 1.4 21.9861 -94.117 -129.201
64 -24.0028 3.95289 1.4 21.163 -96.4049 133.504
65 -23.0028 3.95289 1.4 20.3556 -86.7758 -78.4916
66 -22.0028 3.95289 1.4 19.5661 -101.852 110.311
67 -21.0028 3.95289 1.4 18.7966 -93.66 -159.191
68 -20.0028 3.95289 1.4 18.0498 -97.2646 -91.0333
69 -19.0028 3.95289 1.4 17.3284 -79.7855 -164.949
70 -18.0028 3.95289 1.4 16.636 -83.0854 -22.9642
71 -17.0028 3.95289 1.4 15.9761 -62.3653 -168.191
72 -16.0028 3.95289 1.4 15.3531 -67.9054 -136.4
73 -15.0028 3.95289 1.4 14.7715 -80.626 -77.4472
74 -14.0028 3.95289 1.4 14.2365 -73.4199 -77.6115
75 -13.0028 3.95289 1.4 13.7535 -70.1842 -171.331
76 -12.0028 3.95289 1.4 13.3282 -61.8478 -71.9843
77 -11.0028 3.95289 1.4 12.9661 -67.3096 28.703
78 -10.0028 3.95289 1.4 12.6729 -59.0124 78.1587
79 -9.00282 3.95289 1.4 12.4532 -76.854 -20.8922
80 -8.00282 3.95289 1.4 12.3111 -66.0903 -172.149
81 -7.00282 3.95289 1.4 12.2492 -55.5453 148.872
82 -6.00282 3.95289 1.4 12.2688 -61.7464 -2.49462
83 -5.00282 3.95289 1.4 12.3695 -53.3736 -148.473
84 -4.00282 3.95289 1.4 12.5493 -53.8672 150.563
85 -3.00282 3.95289 1.4 12.8049 -62.7686 29.9888
86 -2.00282 3.95289 1.4 13.1319 -54.9475 -3.50093
87 -1.00282 3.95289 1.4 13.5251 -60.1629 -147.154
88 -0.00282 3.95289 1.4 13.9789 -69.5098 -70.2437
89 0.99718 3.95289 1.4 14.4876 -70.4112 125.668
90 1.99718 3.95289 1.4 15.0456 -57.4874 -123.643
91 2.99718 3.95289 1.4 15.6477 -68.8293 145.2
92 3.99718 3.95289 1.4 16.289 -64.1197 35.9761
93 4.99718 3.95289 1.4 16.965 -62.6226 117.285
94 5.99718 3.95289 1.4 17.6718 -64.4342 110.792
95 6.99718 3.95289 1.4 18.4058 -63.1923 99.3624
96 7.99718 3.95289 1.4 19.1639 -74.5644 44.1058
97 8.99718 3.95289 1.4 19.9433 -60.4005 -124.11
98 9.99718 3.95289 1.4 20.7416 -64.131 16.3223
99 10.9972 3.95289 1.4 21.5568 -64.9432 170.875
100 11.9972 3.95289 1.4 22.387 -65.3629 -122.209
101 12.9972 3.95289 1.4 23.2305 -64.707 -117.372
102 13.9972 3.95289 1.4 24.0861 -80.0978 145.449
103 14.9972 3.95289 1.4 24.9523 -71.1299 47.2059
104 15.9972 3.95289 1.4 25.8283 -83.5421 92.2455
105 16.9972 3.95289 1.4 26.7129 -66.2169 174.938
106 17.9972 3.95289 1.4 27.6055 -73.8086 81.2406
107 18.9972 3.95289 1.4 28.5051 -74.2386 -59.4489
108 19.9972 3.95289 1.4 29.4113 -71.8207 -166.03
109 20.9972 3.95289 1.4 30.3233 -69.8827 52.8208
110 21.9972 3.95289 1.4 31.2407 -71.4118 -167.274
111 22.9972 3.95289 1.4 32.1631 -81.7457 129.538
112 23.9972 3.95289 1.4 33.09 -73.2014 -164.666
113 24.9972 3.95289 1.4 34.021 -79.9406 -19.1582
114 25.9972 3.95289 1.4 34.9558 -77.4149 115.577
115 26.9972 3.95289 1.4 35.8941 -87.8285 -177.945
116 27.9972 3.95289 1.4 36.8357 -78.226 54.5083
117 28.9972 3.95289 1.4 37.7803 -77.3963 -176.91
118 29.9972 3.95289 1.4 38.7276 -95.8657 -162.458
119 -28.0028 4.95289 1.4 24.0511 -90.8151 -38.6372
120 -27.0028 4.95289 1.4 23.1719 -86.9818 -53.4881
121 -26.0028 4.95289 1.4 22.3028 -85.7289 77.4002
122 -25.0028 4.95289 1.4 21.4452 -95.637 -154.37
123 -24.0028 4.95289 1.4 20.6004 -97.412 -115.864
124 -23.0028 4.95289 1.4 19.7702 -95.6935 -165.554
125 -22.0028 4.95289 1.4 18.9563 -92.0818 -81.5149
126 -21.0028 4.95289 1.4 18.161 -83.8292 127.737
127 -20.0028 4.95289 1.4 17.3868 -83.7456 -96.7988
128 -19.0028 4.95289 1.4 16.6368 -87.7093 -50.8669
129 -18.0028 4.95289 1.4 15.9142 -82.8172 90.7482
130 -17.0028 4.95289 1.4 15.2231 -67.0802 -119.662
131 -16.0028 4.95289 1.4 14.5679 -64.0692 34.6918
132 -15.0028 4.95289 1.4 13.9537 -68.5936 72.7671
133 -14.0028 4.95289 1.4 13.386 -73.7515 -90.257
134 -13.0028 4.95289 1.4 12.8711 -67.4432 166.39
135 -12.0028 4.95289 1.4 12.4156 -63.1028 135.691
136 -11.0028 4.95289 1.4 12.0261 -114.81 67.1131
137 -10.0028 4.95289 1.4 11.7093 -73.6498 26.9944
138 -9.00282 4.95289 1.4 11.4712 -61.4144 -44.8505
139 -8.00282 4.95289 1.4 11.3168 -58.4927 -49.3693
140 -7.00282 4.95289 1.4 11.2495 -53.6174 -130.183
141 -6.00282 4.95289 1.4 11.2708 -48.7656 119.821
142 -5.00282 4.95289 1.4 11.3803 -54.4048 92.5072
143 -4.00282 4.95289 1.4 11.5755 -69.7775 36.6935
144 -3.00282 4.95289 1.4 11.8521 -54.6897 176.229
145 -2.00282 4.95289 1.4 12.2047 -65.8247 176.763
146 -1.00282 4.95289 1.4 12.6267 -55.2961 -178.672
147 -0.00282 4.95289 1.4 13.1117 -78.3012 82.6144
148 0.99718 4.95289 1.4 13.6527 -60.9076 50.2501
149 1.99718 4.95289 1.4 14.2435 -64.5314 47.4065
150 2.99718 4.95289 1.4 14.8781 -66.1397 102.572
151 3.99718 4.95289 1.4 15.5512 -66.7668 -20.6778
152 4.99718 4.95289 1.4 16.2579 -61.4227 3.21025
153 5.99718 4.95289 1.4 16.9941 -63.3964 -33.4685
154 6.99718 4.95289 1.4 17.7561 -65.3259 -161.698
155 7.99718 4.95289 1.4 18.5408 -82.6884 -4.74436
156 8.99718 4.95289 1.4 19.3453 -66.0239 -139.043
157 9.99718 4.95289 1.4 20.1674 -62.8667 -65.6451
158 10.9972 4.95289 1.4 21.0048 -68.5311 -12.0216
159 11.9972 4.95289 1.4 21.856 -69.8107 16.1785
160 12.9972 4.95289 1.4 22.7193 -68.1142 -139.167
161 13.9972 4.95289 1.4 23.5933 -70.7314 -139.653
162 14.9972 4.95289 1.4 24.4771 -77.792 -164.764
163 15.9972 4.95289 1.4 25.3694 -76.1233 24.6718
164 16.9972 4.95289 1.4 26.2695 -73.831 35.66
165 17.9972 4.95289 1.4 27.1766 -74.5078 -69.6514
166 18.9972 4.95289 1.4 28.09 -73.1213 -130.948
167 19.9972 4.95289 1.4 29.0091 -77.3391 75.2454
168 20.9972 4.95289 1.4 29.9334 -71.2303 -20.8532
169 21.9972 4.95289 1.4 30.8625 -72.4038 168.331
170 22.9972 4.95289 1.4 31.7958 -67.7231 -35.742
171 23.9972 4.95289 1.4 32.7331 -78.4668 -167.805
172 24.9972 4.95289 1.4 33.6739 -68.5181 174.087
173 25.9972 4.95289 1.4 34.6181 -70.7656 -163.442
174 26.9972 4.95289 1.4 35.5654 -77.1326 -162.313
175 27.9972 4.95289 1.4 36.5154 -79.8776 19.1956
176 28.9972 4.95289 1.4 37.4681 -79.7363 -120.595
177 29.9972 4.95289 1.4 38.4231 -77.7181 -56.4518
178 -28.0028 5.95289 1.4 23.6001 -89.8359 106.408
179 -27.0028 5.95289 1.4 22.7034 -87.3024 -85.1098
180 -26.0028 5.95289 1.4 21.8157 -85.0262 60.1259
181 -25.0028 5.95289 1.4 20.9381 -90.3781 18.8855
182 -24.0028 5.95289 1.4 20.072 -100.949 58.8772
183 -23.0028 5.95289 1.4 19.2189 -99.2346 73.2509
184 -22.0028 5.95289 1.4 18.3806 -80.1829 -0.460139
185 -21.0028 5.95289 1.4 17.5593 -81.5907 -120.773
186 -20.0028 5.95289 1.4 16.7573 -76.7886 -143.984
187 -19.0028 5.95289 1.4 15.9778 -78.4113 -103.919
188 -18.0028 5.95289 1.4 15.224 -80.4545 -122.523
189 -17.0028 5.95289 1.4 14.5 -71.0339 -93.8565
190 -16.0028 5.95289 1.4 13.8105 -69.5069 138.376
191 -15.0028 5.95289 1.4 13.161 -65.2426 -129.356
192 -14.0028 5.95289 1.4 12.5576 -76.7123 170.65
193 -13.0028 5.95289 1.4 12.0072 -61.9118 -68.9904
194 -12.0028 5.95289 1.4 11.5176 -69.8214 -59.5299
195 -11.0028 5.95289 1.4 11.0966 -73.066 73.8869
196 -10.0028 5.95289 1.4 10.7525 -66.0416 110.456
197 -9.00282 5.95289 1.4 10.4927 -65.9471 150.364
198 -8.00282 5.95289 1.4 10.3236 -57.2983 12.2882
199 -7.00282 5.95289 1.4 10.2498 -61.0324 -162.57
200 -6.00282 5.95289 1.4 10.2732 -52.851 -120.246
201 -5.00282 5.95289 1.4 10.3932 -52.4781 -34.6946
202 -4.00282 5.95289 1.4 10.6066 -62.0421 -27.6789
203 -3.00282 5.95289 1.4 10.9078 -58.531 -101.643
204 -2.00282 5.95289 1.4 11.2899 -69.2795 1.42205
205 -1.00282 5.95289 1.4 11.7449 -62.4391 177.886
206 -0.00282 5.95289 1.4 12.2647 -65.4558 151.482
207 0.99718 5.95289 1.4 12.8415 -61.1209 -98.0614
208 1.99718 5.95289 1.4 13.4679 -67.2444 -25.6929
209 2.99718 5.95289 1.4 14.1374 -67.4379 93.6041
210 3.99718 5.95289 1.4 14.844 -62.8467 -135.766
211 4.99718 5.95289 1.4 15.5829 -60.6857 162.035
212 5.99718 5.95289 1.4 16.3495 -71.8709 92.0802
213 6.99718 5.95289 1.4 17.1402 -71.7952 -152.832
214 7.99718 5.95289 1.4 17.9518 -70.13 -32.5561
215 8.99718 5.95289 1.4 18.7816 -63.7451 73.5013
216 9.99718 5.95289 1.4 19.6273 -66.8617 51.3395
217 10.9972 5.95289 1.4 20.4868 -66.3919 8.71539
218 11.9972 5.95289 1.4 21.3586 -70.3718 6.07643
219 12.9972 5.95289 1.4 22.2412 -83.3173 154.131
220 13.9972 5.95289 1.4 23.1334 -73.4016 -28.2094
221 14.9972 5.95289 1.4 24.034 -75.7859 -139.579
222 15.9972 5.95289 1.4 24.9422 -85.0608 126.979
223 16.9972 5.95289 1.4 25.8572 -96.0894 -87.3272
224 17.9972 5.95289 1.4 26.7783 -83.6133 175.665
225 18.9972 5.95289 1.4 27.7048 -71.3017 74.4026
226 19.9972 5.95289 1.4 28.6363 -73.4248 -29.8186
227 20.9972 5.95289 1.4 29.5722 -72.3757 -89.7341
228 21.9972 5.95289 1.4 30.5123 -70.6962 133.018
229 22.9972 5.95289 1.4 31.456 -74.011 -15.8992
230 23.9972 5.95289 1.4 32.4031 -69.1421 169.838
231 24.9972 5.95289 1.4 33.3533 -71.3842 7.01448
232 25.9972 5.95289 1.4 34.3063 -85.2468 -11.1336
233 26.9972 5.95289 1.4 35.2619 -92.4892 63.5109
234 27.9972 5.95289 1.4 36.2199 -72.2349 -74.2923
235 28.9972 5.95289 1.4 37.1801 -88.1161 103.538
236 29.9972 5.95289 1.4 38.1424 -75.9844 -61.6285
237 -28.0028 6.95289 1.4 23.1834 -75.9602 91.3045
238 -27.0028 6.95289 1.4 22.2699 -85.7944 -173.12
239 -26.0028 6.95289 1.4 21.3642 -85.7396 111.859
240 -25.0028 6.95289 1.4 20.4673 -104.805 110.418
241 -24.0028 6.95289 1.4 19.5804 -97.6633 65.8539
242 -23.0028 6.95289 1.4 18.7049 -83.7042 -130.553
243 -22.0028 6.95289 1.4 17.8425 -88.8177 134.49
244 -21.0028 6.95289 1.4 16.9951 -85.7066 -73.4959
245 -20.0028 6.95289 1.4 16.1653 -77.498 -46.2535
246 -19.0028 6.95289 1.4 15.3557 -84.5324 73.3019
247 -18.0028 6.95289 1.4 14.5697 -75.7318 -90.56
248 -17.0028 6.95289 1.4 13.8115 -66.064 -152.837
249 -16.0028 6.95289 1.4 13.0858 -73.2077 178.104
250 -15.0028 6.95289 1.4 12.3983 -64.5445 -15.7597
251 -14.0028 6.95289 1.4 11.7558 -68.0865 36.018
252 -13.0028 6.95289 1.4 11.166 -68.0613 152.653
253 -12.0028 6.95289 1.4 10.6377 -70.7737 -15.2864
254 -11.0028 6.95289 1.4 10.1805 -72.9341 -24.7069
255 -10.0028 6.95289 1.4 9.80421 -69.1888 176.875
256 -9.00282 6.95289 1.4 9.51857 -68.3625 -15.5895
257 -8.00282 6.95289 1.4 9.33188 -59.9621 40.3546
258 -7.00282 6.95289 1.4 9.25012 -56.0539 -34.215
259 -6.00282 6.95289 1.4 9.27606 -65.507 -102.201
260 -5.00282 6.95289 1.4 9.40883 -63.1631 16.8603
261 -4.00282 6.95289 1.4 9.644 -75.1179 -165.93
262 -3.00282 6.95289 1.4 9.97434 -65.486 -143.31
263 -2.00282 6.95289 1.4 10.3908 -66.0607 -129.582
264 -1.00282 6.95289 1.4 10.8834 -50.82 -97.6312
265 -0.00282 6.95289 1.4 11.4424 -61.4478 20.7912
266 0.99718 6.95289 1.4 12.0586 -61.4631 -143.665
267 1.99718 6.95289 1.4 12.7236 -63.2202 1.00462
268 2.99718 6.95289 1.4 13.4303 -64.0441 49.7496
269 3.99718 6.95289 1.4 14.1722 -68.7341 19.0345
270 4.99718 6.95289 1.4 14.9443 -62.7565 -131.419
271 5.99718 6.95289 1.4 15.7421 -66.3294 30.1467
272 6.99718 6.95289 1.4 16.5618 -77.3685 91.061
273 7.99718 6.95289 1.4 17.4004 -77.4661 -5.26544
274 8.99718 6.95289 1.4 18.2553 -62.2368 129.106
275 9.99718 6.95289 1.4 19.1242 -91.9884 42.3084
276 10.9972 6.95289 1.4 20.0054 -63.2432 -66.9056
277 11.9972 6.95289 1.4 20.8973 -67.1208 -81.2716
278 12.9972 6.95289 1.4 21.7986 -73.2617 91.6418
279 13.9972 6.95289 1.4 22.7081 -78.9743 16.7574
280 14.9972 6.95289 1.4 23.625 -74.5614 166.69
281 15.9972 6.95289 1.4 24.5483 -75.7283 -29.9708
282 16.9972 6.95289 1.4 25.4775 -92.6234 124.482
283 17.9972 6.95289 1.4 26.4118 -78.4183 -107.019
284 18.9972 6.95289 1.4 27.3507 -80.6917 -44.1353
285 19.9972 6.95289 1.4 28.2939 -71.1803 -97.9131
286 20.9972 6.95289 1.4 29.2408 -74.6848 117.463
287 21.9972 6.95289 1.4 30.1911 -71.2098 61.5224
288 22.9972 6.95289 1.4 31.1446 -71.8278 -41.9803
289 23.9972 6.95289 1.4 32.1009 -69.3556 146.583
290 24.9972 6.95289 1.4 33.0598 -84.213 -162.754
291 25.9972 6.95289 1.4 34.021 -87.6171 73.7225
292 26.9972 6.95289 1.4 34.9844 -78.552 31.9785
293 27.9972 6.95289 1.4 35.9498 -78.0388 134.722
294 28.9972 6.95289 1.4 36.9171 -71.581 118.103
295 29.9972 6.95289 1.4 37.886 -70.6742 14.3544
296 -28.0028 7.95289 1.4 22.803 -91.7468 163.914
297 -27.0028 7.95289 1.4 21.8737 -74.8162 -98.435
298 -26.0028 7.95289 1.4 20.9508 -81.6291 159.698
299 -25.0028 7.95289 1.4 20.0354 -99.4703 -139.799
300 -24.0028 7.95289 1.4 19.1285 -84.9455 62.137
301 -23.0028 7.95289 1.4 18.2313 -90.2692 -75.3472
302 -22.0028 7.95289 1.4 17.3453 -85.4798 116.422
303 -21.0028 7.95289 1.4 16.4725 -90.3014 -58.9767
304 -20.0028 7.95289 1.4 15.6148 -75.4951 -62.6325
305 -19.0028 7.95289 1.4 14.7751 -70.7233 83.9605
306 -18.0028 7.95289 1.4 13.9565 -82.1964 -178.785
307 -17.0028 7.95289 1.4 13.163 -68.3118 -106.137
308 -16.0028 7.95289 1.4 12.3994 -60.9541 3.16536
309 -15.0028 7.95289 1.4 11.6716 -68.8679 12.7978
310 -14.0028 7.95289 1.4 10.9867 -65.1275 174.697
311 -13.0028 7.95289 1.4 10.3531 -57.0297 109.833
312 -12.0028 7.95289 1.4 9.78101 -71.8002 21.7584
313 -11.0028 7.95289 1.4 9.28164 -62.9162 -133.146
314 -10.0028 7.95289 1.4 8.86733 -76.8736 -121.676
315 -9.00282 7.95289 1.4 8.55045 -68.3745 -55.4467
316 -8.00282 7.95289 1.4 8.34212 -57.2326 147.244
317 -7.00282 7.95289 1.4 8.25056 -50.0297 20.8955
318 -6.00282 7.95289 1.4 8.27964 -67.9726 -105.295
319 -5.00282 7.95289 1.4 8.42811 -50.8464 49.2463
320 -4.00282 7.95289 1.4 8.68987 -66.1033 164.398
321 -3.00282 7.95289 1.4 9.05508 -62.7459 -31.8865
322 -2.00282 7.95289 1.4 9.51185 -55.1677 -44.3589
323 -1.00282 7.95289 1.4 10.0477 -58.9021 174.563
324 -0.00282 7.95289 1.4 10.6507 -62.4752 40.5906
325 0.99718 7.95289 1.4 11.3101 -58.3816 -156.119
326 1.99718 7.95289 1.4 12.0166 -57.997 -126.315
327 2.99718 7.95289 1.4 12.7624 -59.3891 -124.941
328 3.99718 7.95289 1.4 13.541 -65.0887 62.3002
329 4.99718 7.95289 1.4 14.3471 -66.447 -118.413
330 5.99718 7.95289 1.4 15.1763 -70.1289 -63.4321
331 6.99718 7.95289 1.4 16.025 -59.2997 -156.573
332 7.99718 7.95289 1.4 16.8903 -73.7162 62.0815
333 8.99718 7.95289 1.4 17.7697 -63.1775 46.7491
334 9.99718 7.95289 1.4 18.6613 -69.3952 89.3874
335 10.9972 7.95289 1.4 19.5633 -68.0676 60.8879
336 11.9972 7.95289 1.4 20.4745 -74.0903 -22.0644
337 12.9972 7.95289 1.4 21.3936 -65.6778 150.51
338 13.9972 7.95289 1.4 22.3196 -75.4828 11.4717
339 14.9972 7.95289 1.4 23.2518 -76.3059 -127.756
340 15.9972 7.95289 1.4 24.1894 -69.6006 -38.4331
341 16.9972 7.95289 1.4 25.1318 -75.7548 50.2062
342 17.9972 7.95289 1.4 26.0785 -73.3208 -25.6109
343 18.9972 7.95289 1.4 27.0291 -84.6473 -28.8622
344 19.9972 7.95289 1.4 27.983 -83.7305 -130.741
345 20.9972 7.95289 1.4 28.9401 -80.4522 -171.008
346 21.9972 7.95289 1.4 29.9 -74.7026 -170.372
347 22.9972 7.95289 1.4 30.8625 -71.0779 -101.544
348 23.9972 7.95289 1.4 31.8273 -77.0692 133.947
349 24.9972 7.95289 1.4 32.7941 -73.4164 -62.8148
350 25.9972 7.95289 1.4 33.7629 -74.1302 86.679
351 26.9972 7.95289 1.4 34.7335 -81.2053 -171.541
352 27.9972 7.95289 1.4 35.7057 -69.6714 123.633
353 28.9972 7.95289 1.4 36.6794 -70.575 -169.303
354 29.9972 7.95289 1.4 37.6545 -73.6485 28.3618
355 -28.0028 8.95289 1.4 22.4607 -84.836 -129.341
356 -27.0028 8.95289 1.4 21.5166 -75.9707 -83.6052
357 -26.0028 8.95289 1.4 20.5778 -88.4691 122.17
358 -25.0028 8.95289 1.4 19.645 -78.0997 -53.2322
359 -24.0028 8.95289 1.4 18.7191 -76.9456 79.9597
360 -23.0028 8.95289 1.4 17.8013 -85.3453 -84.2909
361 -22.0028 8.95289 1.4 16.8928 -94.968 52.2179
362 -21.0028 8.95289 1.4 15.9953 -86.5588 139.638
363 -20.0028 8.95289 1.4 15.1106 -75.9448 -63.0906
364 -19.0028 8.95289 1.4 14.2411 -86.479 -80.8062
365 -18.0028 8.95289 1.4 13.39 -94.737 -82.8298
366 -17.0028 8.95289 1.4 12.5607 -63.7123 167.379
367 -16.0028 8.95289 1.4 11.7581 -66.1089 57.6568
368 -15.0028 8.95289 1.4 10.9879 -64.961 -162.58
369 -14.0028 8.95289 1.4 10.2574 -66.346 -104.92
370 -13.0028 8.95289 1.4 9.57572 -57.8427 -41.857
371 -12.0028 8.95289 1.4 8.95406 -63.1894 -94.156
372 -11.0028 8.95289 1.4 8.40571 -57.8647 86.0396
373 -10.0028 8.95289 1.4 7.94585 -74.939 98.8966
374 -9.00282 8.95289 1.4 7.59061 -68.0194 -79.8909
375 -8.00282 8.95289 1.4 7.35514 -58.2192 171.677
376 -7.00282 8.95289 1.4 7.25112 -51.2944 94.4805
377 -6.00282 8.95289 1.4 7.28419 -53.5444 78.5973
378 -5.00282 8.95289 1.4 7.45253 -50.9342 104.65
379 -4.00282 8.95289 1.4 7.74732 -67.1565 103.898
380 -3.00282 8.95289 1.4 8.15485 -59.4194 32.5744
381 -2.00282 8.95289 1.4 8.65923 -51.1282 -38.7712
382 -1.00282 8.95289 1.4 9.24462 -56.3964 99.3426
383 -0.00282 8.95289 1.4 9.89665 -62.9495 46.6643
384 0.99718 8.95289 1.4 10.603 -65.855 102.129
385 1.99718 8.95289 1.4 11.3536 -58.2944 -9.54047
386 2.99718 8.95289 1.4 12.1403 -58.6704 -113.061
387 3.99718 8.95289 1.4 12.9563 -59.7929 10.7231
388 4.99718 8.95289 1.4 13.7966 -65.44 5.97425
389 5.99718 8.95289 1.4 14.657 -60.4906 -1.55897
390 6.99718 8.95289 1.4 15.5341 -62.5516 -116.718
391 7.99718 8.95289 1.4 16.4253 -65.4657 -109.844
392 8.99718 8.95289 1.4 17.3283 -62.5397 -44.5967
393 9.99718 8.95289 1.4 18.2415 -75.4172 -129.812
394 10.9972 8.95289 1.4 19.1633 -69.2386 -174.575
395 11.9972 8.95289 1.4 20.0926 -78.9718 148.103
396 12.9972 8.95289 1.4 21.0284 -68.9051 -128.05
397 13.9972 8.95289 1.4 21.9698 -74.1847 -78.1562
398 14.9972 8.95289 1.4 22.9162 -67.9751 153.983
399 15.9972 8.95289 1.4 23.867 -81.0998 12.6294
400 16.9972 8.95289 1.4 24.8217 -71.6509 157.625
401 17.9972 8.95289 1.4 25.7798 -77.1775 179.329
402 18.9972 8.95289 1.4 26.7409 -71.5158 143.127
403 19.9972 8.95289 1.4 27.7048 -78.9129 60.5733
