#Rx
# X(m), Y(m), Z(m), Distance(m), Power (dBm) Phase (deg)
1 -28.0028 2.95289 1.4 25.0488 -91.5218 -95.6476
2 -27.2528 2.95289 1.4 24.4155 -90.8418 -100.94
3 -26.5028 2.95289 1.4 23.7889 -95.6887 -78.5395
4 -25.7528 2.95289 1.4 23.1697 -90.6966 39.2113
5 -25.0028 2.95289 1.4 22.5584 -95.8578 -114.462
6 -24.2528 2.95289 1.4 21.9558 -99.7228 114.105
7 -23.5028 2.95289 1.4 21.3625 -109.918 -120.152
8 -22.7528 2.95289 1.4 20.7793 -111.438 -69.1739
9 -22.0028 2.95289 1.4 20.2071 -93.0834 -105.173
10 -21.2528 2.95289 1.4 19.6468 -122.57 124.421
11 -20.5028 2.95289 1.4 19.0997 -99.1287 74.4543
12 -19.7528 2.95289 1.4 18.5666 -82.6493 141.383
13 -19.0028 2.95289 1.4 18.049 -83.0395 149.075
14 -18.2528 2.95289 1.4 17.5482 -107.699 104.126
15 -17.5028 2.95289 1.4 17.0657 -96.9655 -135.897
16 -16.7528 2.95289 1.4 16.6031 -71.0345 13.1724
17 -16.0028 2.95289 1.4 16.162 -70.6136 -3.32115
18 -15.2528 2.95289 1.4 15.7443 -79.3107 -158.067
19 -14.5028 2.95289 1.4 15.3519 -68.8468 -166.915
20 -13.7528 2.95289 1.4 14.9868 -70.388 -55.8822
21 -13.0028 2.95289 1.4 14.651 -67.8534 -81.9986
22 -12.2528 2.95289 1.4 14.3466 -69.1568 164.571
23 -11.5028 2.95289 1.4 14.0756 -66.4466 -95.7086
24 -10.7528 2.95289 1.4 13.84 -72.315 54.8706
25 -10.0028 2.95289 1.4 13.6416 -64.7901 -1.13843
26 -9.25282 2.95289 1.4 13.4821 -78.3986 10.2301
27 -8.50282 2.95289 1.4 13.3628 -72.9878 85.3918
28 -7.75282 2.95289 1.4 13.2849 -61.0089 -104.836
29 -7.00282 2.95289 1.4 13.249 -51.8992 16.3086
30 -6.25282 2.95289 1.4 13.2555 -50.3085 63.3738
31 -5.50282 2.95289 1.4 13.3044 -58.4098 -112.711
32 -4.75282 2.95289 1.4 13.3952 -53.4189 148.666
33 -4.00282 2.95289 1.4 13.527 -62.0719 61.2899
34 -3.25282 2.95289 1.4 13.6986 -60.5149 80.1865
35 -2.50282 2.95289 1.4 13.9086 -58.0384 -30.1723
36 -1.75282 2.95289 1.4 14.1553 -58.8673 139.255
37 -1.00282 2.95289 1.4 14.4368 -63.9461 170.375
38 -0.25282 2.95289 1.4 14.7511 -61.1165 -156.063
39 0.49718 2.95289 1.4 15.0961 -68.883 37.2073
40 1.24718 2.95289 1.4 15.4698 -65.7242 113.04
41 1.99718 2.95289 1.4 15.8702 -68.2714 -159.057
42 2.74718 2.95289 1.4 16.2953 -62.5654 -118.13
43 3.49718 2.95289 1.4 16.7432 -79.8265 -135.379
44 4.24718 2.95289 1.4 17.2121 -63.6169 -154.269
45 4.99718 2.95289 1.4 17.7004 -65.2018 119.614
46 5.74718 2.95289 1.4 18.2065 -60.863 68.7893
47 6.49718 2.95289 1.4 18.729 -68.8935 -88.1578
48 7.24718 2.95289 1.4 19.2665 -63.3285 163.17
49 7.99718 2.95289 1.4 19.8178 -68.4554 -77.9209
50 8.74718 2.95289 1.4 20.3819 -60.3005 40.6312
51 9.49718 2.95289 1.4 20.9575 -64.4052 142.753
52 10.2472 2.95289 1.4 21.5439 -83.5396 105.837
53 10.9972 2.95289 1.4 22.1402 -67.5096 -154.975
54 11.7472 2.95289 1.4 22.7456 -74.468 -70.3533
55 12.4972 2.95289 1.4 23.3594 -71.9675 -101.392
56 13.2472 2.95289 1.4 23.9809 -66.4142 -156.654
57 13.9972 2.95289 1.4 24.6096 -66.6165 163.924
58 14.7472 2.95289 1.4 25.2449 -78.8556 -3.48341
59 15.4972 2.95289 1.4 25.8863 -72.3821 -135.398
60 16.2472 2.95289 1.4 26.5335 -76.4206 -156.694
61 16.9972 2.95289 1.4 27.1859 -74.5661 -57.7154
62 17.7472 2.95289 1.4 27.8433 -78.2572 -116.583
63 18.4972 2.95289 1.4 28.5052 -84.4401 115.724
64 19.2472 2.95289 1.4 29.1714 -72.0219 -110.386
65 19.9972 2.95289 1.4 29.8415 -81.8268 -179.156
66 20.7472 2.95289 1.4 30.5154 -75.7128 -144.195
67 21.4972 2.95289 1.4 31.1927 -81.3398 36.0791
68 22.2472 2.95289 1.4 31.8733 -87.125 -154.666
69 22.9972 2.95289 1.4 32.557 -80.0479 75.0137
70 23.7472 2.95289 1.4 33.2435 -95.5889 -106.119
71 24.4972 2.95289 1.4 33.9327 -95.2735 -138.787
72 25.2472 2.95289 1.4 34.6244 -89.6601 100.057
73 25.9972 2.95289 1.4 35.3186 -76.0748 112.139
74 26.7472 2.95289 1.4 36.0149 -79.1774 -4.13834
75 27.4972 2.95289 1.4 36.7134 -86.3322 20.5933
76 28.2472 2.95289 1.4 37.4138 -92.2738 169.733
77 28.9972 2.95289 1.4 38.1162 -80.3671 -171.21
78 29.7472 2.95289 1.4 38.8203 -81.804 161.521
79 30.4972 2.95289 1.4 39.5261 -83.2274 152.382
80 -28.0028 3.70289 1.4 24.6604 -95.1732 165.949
81 -27.2528 3.70289 1.4 24.0168 -87.3282 -63.9659
82 -26.5028 3.70289 1.4 23.3796 -91.8317 -163.832
83 -25.7528 3.70289 1.4 22.7492 -93.1148 -127.758
84 -25.0028 3.70289 1.4 22.1264 -89.0138 170.9
85 -24.2528 3.70289 1.4 21.5116 -99.7963 176.757
86 -23.5028 3.70289 1.4 20.9057 -88.8801 85.9947
87 -22.7528 3.70289 1.4 20.3094 -99.86 42.334
88 -22.0028 3.70289 1.4 19.7236 -106.476 14.6407
89 -21.2528 3.70289 1.4 19.1492 -100.064 4.74168
90 -20.5028 3.70289 1.4 18.5873 -91.281 57.4184
91 -19.7528 3.70289 1.4 18.0392 -85.886 150.604
92 -19.0028 3.70289 1.4 17.506 -88.0839 13.9217
93 -18.2528 3.70289 1.4 16.9892 -80.2945 28.853
94 -17.5028 3.70289 1.4 16.4904 -90.3733 -140.157
95 -16.7528 3.70289 1.4 16.0111 -78.2823 129.163
96 -16.0028 3.70289 1.4 15.5532 -78.0625 -0.353264
97 -15.2528 3.70289 1.4 15.1187 -73.4715 102.987
98 -14.5028 3.70289 1.4 14.7097 -79.9272 -46.14
99 -13.7528 3.70289 1.4 14.3282 -69.938 74.6993
100 -13.0028 3.70289 1.4 13.9766 -74.1822 -34.9842
101 -12.2528 3.70289 1.4 13.6572 -65.5131 104.048
102 -11.5028 3.70289 1.4 13.3722 -72.6124 -101.188
103 -10.7528 3.70289 1.4 13.124 -60.0322 -20.623
104 -10.0028 3.70289 1.4 12.9146 -63.6565 -2.93565
105 -9.25282 3.70289 1.4 12.746 -60.0857 89.8436
106 -8.50282 3.70289 1.4 12.6198 -63.4698 173.181
107 -7.75282 3.70289 1.4 12.5372 -54.2655 -57.5508
108 -7.00282 3.70289 1.4 12.4992 -66.5031 -92.7247
109 -6.25282 3.70289 1.4 12.5061 -52.1849 81.3805
110 -5.50282 3.70289 1.4 12.5579 -52.3008 67.1699
111 -4.75282 3.70289 1.4 12.654 -48.5568 157.308
112 -4.00282 3.70289 1.4 12.7934 -68.7965 -144.117
113 -3.25282 3.70289 1.4 12.9748 -61.1473 -90.6314
114 -2.50282 3.70289 1.4 13.1963 -72.6294 -106.028
115 -1.75282 3.70289 1.4 13.4561 -64.0572 139.88
116 -1.00282 3.70289 1.4 13.7519 -63.338 -109.078
117 -0.25282 3.70289 1.4 14.0814 -57.6599 -72.9062
118 0.49718 3.70289 1.4 14.4425 -73.6596 180
119 1.24718 3.70289 1.4 14.8327 -60.3882 -128.324
120 1.99718 3.70289 1.4 15.2498 -57.6873 13.6001
121 2.74718 3.70289 1.4 15.6917 -63.3502 92.7939
122 3.49718 3.70289 1.4 16.1563 -68.4137 160.689
123 4.24718 3.70289 1.4 16.6418 -66.54 -11.6934
124 4.99718 3.70289 1.4 17.1464 -62.5152 -48.0388
125 5.74718 3.70289 1.4 17.6684 -65.3064 163.742
126 6.49718 3.70289 1.4 18.2063 -61.6427 -43.2718
127 7.24718 3.70289 1.4 18.7588 -60.2666 134.727
128 7.99718 3.70289 1.4 19.3246 -61.6866 -44.4093
129 8.74718 3.70289 1.4 19.9026 -66.985 -45.0755
130 9.49718 3.70289 1.4 20.4917 -64.0334 28.0875
131 10.2472 3.70289 1.4 21.0911 -68.703 89.0778
132 10.9972 3.70289 1.4 21.6998 -71.5346 83.6709
133 11.7472 3.70289 1.4 22.3171 -70.2839 66.6745
134 12.4972 3.70289 1.4 22.9424 -68.365 43.4104
135 13.2472 3.70289 1.4 23.5749 -66.7684 -68.5011
136 13.9972 3.70289 1.4 24.2141 -68.7824 -172.887
137 14.7472 3.70289 1.4 24.8596 -66.8443 43.4076
138 15.4972 3.70289 1.4 25.5107 -79.213 -0.96071
139 16.2472 3.70289 1.4 26.1671 -76.1848 43.176
140 16.9972 3.70289 1.4 26.8285 -76.8932 82.2977
141 17.7472 3.70289 1.4 27.4944 -71.351 98.6546
142 18.4972 3.70289 1.4 28.1645 -76.3393 120.294
143 19.2472 3.70289 1.4 28.8385 -83.8058 -107.795
144 19.9972 3.70289 1.4 29.5162 -78.3717 98.0932
145 20.7472 3.70289 1.4 30.1974 -75.0573 112.034
146 21.4972 3.70289 1.4 30.8817 -76.2176 -23.4975
147 22.2472 3.70289 1.4 31.569 -93.4511 -119.743
148 22.9972 3.70289 1.4 32.2591 -95.8439 166.605
149 23.7472 3.70289 1.4 32.9518 -85.808 -41.3721
150 24.4972 3.70289 1.4 33.647 -97.9101 -53.6194
151 25.2472 3.70289 1.4 34.3445 -81.7275 104.597
152 25.9972 3.70289 1.4 35.0442 -86.9698 -91.1142
153 26.7472 3.70289 1.4 35.7459 -82.9837 31.8596
154 27.4972 3.70289 1.4 36.4495 -90.0798 -135.853
155 28.2472 3.70289 1.4 37.1549 -80.3651 135.083
156 28.9972 3.70289 1.4 37.8621 -88.1289 -37.3703
157 29.7472 3.70289 1.4 38.5708 -77.2177 -133.622
158 30.4972 3.70289 1.4 39.2811 -84.9828 179.941
159 -28.0028 4.45289 1.4 24.2889 -94.3687 55.0046
160 -27.2528 4.45289 1.4 23.6352 -89.2394 45.2617
161 -26.5028 4.45289 1.4 22.9875 -89.1548 -3.69136
162 -25.7528 4.45289 1.4 22.3461 -89.7466 74.3272
163 -25.0028 4.45289 1.4 21.7116 -91.0497 61.7478
164 -24.2528 4.45289 1.4 21.0848 -101.507 22.643
165 -23.5028 4.45289 1.4 20.4662 -97.0145 -33.9111
166 -22.7528 4.45289 1.4 19.8567 -90.7728 172.183
167 -22.0028 4.45289 1.4 19.2571 -88.5999 -48.5057
168 -21.2528 4.45289 1.4 18.6684 -102.713 -89.8471
169 -20.5028 4.45289 1.4 18.0916 -93.1434 47.8651
170 -19.7528 4.45289 1.4 17.528 -83.9129 139.374
171 -19.0028 4.45289 1.4 16.9788 -91.251 147.346
172 -18.2528 4.45289 1.4 16.4454 -89.3023 0.876643
173 -17.5028 4.45289 1.4 15.9295 -80.003 -106.895
174 -16.7528 4.45289 1.4 15.4328 -66.0778 -6.47178
175 -16.0028 4.45289 1.4 14.9573 -70.6638 -53.1847
176 -15.2528 4.45289 1.4 14.5049 -66.0619 177.165
177 -14.5028 4.45289 1.4 14.0781 -79.2866 -64.229
178 -13.7528 4.45289 1.4 13.679 -74.3898 25.9618
179 -13.0028 4.45289 1.4 13.3102 -72.4357 26.4358
180 -12.2528 4.45289 1.4 12.9744 -69.2429 149.565
181 -11.5028 4.45289 1.4 12.6741 -68.2745 -143.959
182 -10.7528 4.45289 1.4 12.412 -67.0556 -158.736
183 -10.0028 4.45289 1.4 12.1904 -64.3515 7.31
184 -9.25282 4.45289 1.4 12.0116 -66.9181 156.102
185 -8.50282 4.45289 1.4 11.8775 -66.6985 -171.549
186 -7.75282 4.45289 1.4 11.7898 -57.8682 6.15201
187 -7.00282 4.45289 1.4 11.7493 -53.9888 83.2234
188 -6.25282 4.45289 1.4 11.7567 -59.1691 119.711
189 -5.50282 4.45289 1.4 11.8118 -53.0729 -4.7409
190 -4.75282 4.45289 1.4 11.9139 -63.3877 -97.2232
191 -4.00282 4.45289 1.4 12.0619 -64.4363 70.9457
192 -3.25282 4.45289 1.4 12.2541 -55.8523 5.47797
193 -2.50282 4.45289 1.4 12.4884 -65.3373 -91.8839
194 -1.75282 4.45289 1.4 12.7626 -55.4937 -179.458
195 -1.00282 4.45289 1.4 13.0741 -55.0164 6.69023
196 -0.25282 4.45289 1.4 13.4203 -62.2332 -70.8719
197 0.49718 4.45289 1.4 13.7986 -73.8572 48.4566
198 1.24718 4.45289 1.4 14.2065 -61.2942 -97.1018
199 1.99718 4.45289 1.4 14.6415 -65.3254 120.328
200 2.74718 4.45289 1.4 15.1012 -67.7379 -62.163
201 3.49718 4.45289 1.4 15.5835 -66.5466 -109.48
202 4.24718 4.45289 1.4 16.0863 -64.9546 -120.184
203 4.99718 4.45289 1.4 16.6077 -60.9907 29.4136
204 5.74718 4.45289 1.4 17.1461 -64.9684 -149.738
205 6.49718 4.45289 1.4 17.6999 -63.7213 33.7432
206 7.24718 4.45289 1.4 18.2677 -64.9811 89.4611
207 7.99718 4.45289 1.4 18.8483 -60.2668 -129.926
208 8.74718 4.45289 1.4 19.4404 -65.1722 -125.354
209 9.49718 4.45289 1.4 20.0432 -63.2602 -64.1496
210 10.2472 4.45289 1.4 20.6556 -64.257 -68.484
211 10.9972 4.45289 1.4 21.2767 -64.6731 -85.7035
212 11.7472 4.45289 1.4 21.906 -65.7858 -156.674
213 12.4972 4.45289 1.4 22.5426 -67.0388 115.982
214 13.2472 4.45289 1.4 23.1861 -72.9602 33.1606
215 13.9972 4.45289 1.4 23.8357 -72.533 -113.599
216 14.7472 4.45289 1.4 24.4911 -77.0397 37.0123
217 15.4972 4.45289 1.4 25.1518 -79.6909 -73.3025
218 16.2472 4.45289 1.4 25.8174 -84.9906 -134.851
219 16.9972 4.45289 1.4 26.4874 -73.1837 89.3145
220 17.7472 4.45289 1.4 27.1617 -85.8115 50.0717
221 18.4972 4.45289 1.4 27.8398 -71.7541 -48.2204
222 19.2472 4.45289 1.4 28.5215 -75.4374 -44.6729
223 19.9972 4.45289 1.4 29.2066 -84.6206 -134.306
224 20.7472 4.45289 1.4 29.8948 -76.3835 -29.1245
225 21.4972 4.45289 1.4 30.5859 -70.034 -76.281
226 22.2472 4.45289 1.4 31.2797 -78.3215 -143.647
227 22.9972 4.45289 1.4 31.9761 -81.4251 160.972
228 23.7472 4.45289 1.4 32.6748 -72.5985 -133.142
229 24.4972 4.45289 1.4 33.3757 -84.6632 -169.672
230 25.2472 4.45289 1.4 34.0788 -91.846 179.405
231 25.9972 4.45289 1.4 34.7838 -87.5784 95.4925
232 26.7472 4.45289 1.4 35.4906 -83.8776 -93.2395
233 27.4972 4.45289 1.4 36.1992 -81.534 -34.9241
234 28.2472 4.45289 1.4 36.9094 -84.219 -10.3164
235 28.9972 4.45289 1.4 37.6212 -87.775 46.6606
236 29.7472 4.45289 1.4 38.3344 -78.6944 19.1412
237 30.4972 4.45289 1.4 39.049 -77.1724 61.5545
238 -28.0028 5.20289 1.4 23.9352 -90.5869 14.6043
239 -27.2528 5.20289 1.4 23.2716 -86.6819 -176.234
240 -26.5028 5.20289 1.4 22.6134 -85.7775 -80.3329
241 -25.7528 5.20289 1.4 21.9611 -82.9872 -41.7734
242 -25.0028 5.20289 1.4 21.3152 -84.9982 -61.8487
243 -24.2528 5.20289 1.4 20.6763 -102.315 -137.388
244 -23.5028 5.20289 1.4 20.0451 -94.9017 145.01
245 -22.7528 5.20289 1.4 19.4224 -94.898 -48.4761
246 -22.0028 5.20289 1.4 18.809 -89.3584 -135.027
247 -21.2528 5.20289 1.4 18.2058 -83.4885 103.572
248 -20.5028 5.20289 1.4 17.6139 -86.5325 56.1402
249 -19.7528 5.20289 1.4 17.0345 -89.2618 12.4911
250 -19.0028 5.20289 1.4 16.4688 -93.6898 87.7671
251 -18.2528 5.20289 1.4 15.9184 -82.9155 75.1474
252 -17.5028 5.20289 1.4 15.3848 -88.6169 -175.785
253 -16.7528 5.20289 1.4 14.8699 -63.9448 -151.233
254 -16.0028 5.20289 1.4 14.3758 -66.9477 -144.193
255 -15.2528 5.20289 1.4 13.9045 -67.7447 176.595
256 -14.5028 5.20289 1.4 13.4586 -69.8491 16.0646
257 -13.7528 5.20289 1.4 13.0406 -66.9301 123.381
258 -13.0028 5.20289 1.4 12.6533 -71.081 56.5788
259 -12.2528 5.20289 1.4 12.2995 -64.0563 90.55
260 -11.5028 5.20289 1.4 11.9823 -65.8643 142.601
261 -10.7528 5.20289 1.4 11.7047 -76.0258 75.35
262 -10.0028 5.20289 1.4 11.4694 -73.2161 -0.194598
263 -9.25282 5.20289 1.4 11.2792 -63.9202 51.7665
264 -8.50282 5.20289 1.4 11.1364 -57.829 -61.8186
265 -7.75282 5.20289 1.4 11.0427 -61.1601 46.1995
266 -7.00282 5.20289 1.4 10.9995 -53.7741 -160.999
267 -6.25282 5.20289 1.4 11.0074 -48.8858 149.367
268 -5.50282 5.20289 1.4 11.0662 -62.0961 -117.558
269 -4.75282 5.20289 1.4 11.1751 -68.3969 -56.6002
270 -4.00282 5.20289 1.4 11.3328 -70.5091 -155.956
271 -3.25282 5.20289 1.4 11.5371 -61.8322 -36.6701
272 -2.50282 5.20289 1.4 11.7857 -62.9771 101.665
273 -1.75282 5.20289 1.4 12.0758 -61.5042 76.332
274 -1.00282 5.20289 1.4 12.4046 -55.1125 50.2796
275 -0.25282 5.20289 1.4 12.769 -68.7875 135.839
276 0.49718 5.20289 1.4 13.1661 -65.037 89.4806
277 1.24718 5.20289 1.4 13.5929 -60.667 -123.498
278 1.99718 5.20289 1.4 14.0469 -61.6816 -155.072
279 2.74718 5.20289 1.4 14.5255 -61.4905 57.8557
280 3.49718 5.20289 1.4 15.0262 -67.1999 46.8035
281 4.24718 5.20289 1.4 15.547 -64.0592 -42.7367
282 4.99718 5.20289 1.4 16.086 -61.3302 151.4
283 5.74718 5.20289 1.4 16.6413 -66.3294 -65.9606
284 6.49718 5.20289 1.4 17.2113 -68.6432 32.0441
285 7.24718 5.20289 1.4 17.7947 -64.8615 90.2517
286 7.99718 5.20289 1.4 18.3902 -64.9266 98.027
287 8.74718 5.20289 1.4 18.9967 -68.1494 170.485
288 9.49718 5.20289 1.4 19.613 -65.3055 74.0782
289 10.2472 5.20289 1.4 20.2384 -63.0327 84.2702
290 10.9972 5.20289 1.4 20.8721 -71.4262 4.50475
291 11.7472 5.20289 1.4 21.5132 -82.8911 176.395
292 12.4972 5.20289 1.4 22.1611 -82.0788 -36.5671
293 13.2472 5.20289 1.4 22.8153 -76.8014 -177.704
294 13.9972 5.20289 1.4 23.4752 -95.7766 -178.847
295 14.7472 5.20289 1.4 24.1404 -76.888 139.75
296 15.4972 5.20289 1.4 24.8104 -80.9108 94.4291
297 16.2472 5.20289 1.4 25.4849 -86.6822 135.244
298 16.9972 5.20289 1.4 26.1635 -80.8234 -9.98227
299 17.7472 5.20289 1.4 26.8459 -81.0533 6.82025
300 18.4972 5.20289 1.4 27.5318 -74.529 130.849
301 19.2472 5.20289 1.4 28.2209 -77.0552 -159.585
302 19.9972 5.20289 1.4 28.9131 -76.6078 -161.785
303 20.7472 5.20289 1.4 29.6081 -79.9407 41.5031
304 21.4972 5.20289 1.4 30.3058 -87.8602 129.723
305 22.2472 5.20289 1.4 31.0059 -74.9879 158.708
306 22.9972 5.20289 1.4 31.7082 -76.6239 157.015
307 23.7472 5.20289 1.4 32.4127 -91.0022 -24.2353
308 24.4972 5.20289 1.4 33.1192 -85.3209 11.077
309 25.2472 5.20289 1.4 33.8276 -77.7636 168.693
310 25.9972 5.20289 1.4 34.5377 -81.3559 30.7239
311 26.7472 5.20289 1.4 35.2495 -74.1466 36.2679
312 27.4972 5.20289 1.4 35.9628 -92.3803 21.1603
313 28.2472 5.20289 1.4 36.6776 -86.4246 -167.151
314 28.9972 5.20289 1.4 37.3938 -85.7723 -158.363
315 29.7472 5.20289 1.4 38.1113 -76.9337 -179.132
316 30.4972 5.20289 1.4 38.83 -75.3708 -164.102
317 -28.0028 5.95289 1.4 23.6001 -89.7754 108.68
318 -27.2528 5.95289 1.4 22.9267 -85.0738 144.465
319 -26.5028 5.95289 1.4 22.2583 -90.7279 -153.82
320 -25.7528 5.95289 1.4 21.5953 -84.9212 -131.458
321 -25.0028 5.95289 1.4 20.9381 -90.8733 10.8822
322 -24.2528 5.95289 1.4 20.2874 -99.6655 -90.3839
323 -23.5028 5.95289 1.4 19.6437 -97.3565 24.9845
324 -22.7528 5.95289 1.4 19.0079 -92.9943 -49.1126
325 -22.0028 5.95289 1.4 18.3806 -80.4637 -1.80913
326 -21.2528 5.95289 1.4 17.7629 -83.6417 121.051
327 -20.5028 5.95289 1.4 17.1557 -86.0175 -108.235
328 -19.7528 5.95289 1.4 16.5602 -86.3719 114.66
329 -19.0028 5.95289 1.4 15.9778 -77.2699 -112.632
330 -18.2528 5.95289 1.4 15.4098 -82.4257 8.11051
331 -17.5028 5.95289 1.4 14.858 -86.941 161.295
332 -16.7528 5.95289 1.4 14.3242 -78.5587 -98.3327
333 -16.0028 5.95289 1.4 13.8105 -67.1533 128.531
334 -15.2528 5.95289 1.4 13.3193 -67.5432 99.5518
335 -14.5028 5.95289 1.4 12.8531 -70.3524 44.8033
336 -13.7528 5.95289 1.4 12.4147 -67.2566 149.817
337 -13.0028 5.95289 1.4 12.0072 -59.7538 -58.8932
338 -12.2528 5.95289 1.4 11.6338 -61.8119 -29.7001
339 -11.5028 5.95289 1.4 11.298 -68.8019 154.653
340 -10.7528 5.95289 1.4 11.0031 -79.3327 -138.759
341 -10.0028 5.95289 1.4 10.7525 -72.3951 68.2095
342 -9.25282 5.95289 1.4 10.5493 -63.0885 -175.309
343 -8.50282 5.95289 1.4 10.3965 -64.1235 24.1126
344 -7.75282 5.95289 1.4 10.2961 -59.0711 102.77
345 -7.00282 5.95289 1.4 10.2498 -61.2415 -161.7
346 -6.25282 5.95289 1.4 10.2582 -53.6003 -93.5171
347 -5.50282 5.95289 1.4 10.3213 -50.5023 -177.028
348 -4.75282 5.95289 1.4 10.438 -49.9271 -125.83
349 -4.00282 5.95289 1.4 10.6066 -62.2203 -29.3577
350 -3.25282 5.95289 1.4 10.8246 -61.0593 66.1125
351 -2.50282 5.95289 1.4 11.0892 -54.3336 169.667
352 -1.75282 5.95289 1.4 11.3971 -53.916 -132.184
353 -1.00282 5.95289 1.4 11.7449 -59.4157 -178.522
354 -0.25282 5.95289 1.4 12.1291 -49.7061 -160.023
355 0.49718 5.95289 1.4 12.5464 -60.1282 65.1377
356 1.24718 5.95289 1.4 12.9937 -74.5345 5.20376
357 1.99718 5.95289 1.4 13.4679 -69.9865 -0.78041
358 2.74718 5.95289 1.4 13.9663 -72.1898 -59.4761
359 3.49718 5.95289 1.4 14.4864 -62.8552 146.601
360 4.24718 5.95289 1.4 15.0259 -65.7344 31.0866
361 4.99718 5.95289 1.4 15.5829 -61.8409 160.144
362 5.74718 5.95289 1.4 16.1555 -63.8849 -88.0252
363 6.49718 5.95289 1.4 16.7421 -65.1993 -22.5866
364 7.24718 5.95289 1.4 17.3413 -64.3675 -36.169
365 7.99718 5.95289 1.4 17.9518 -71.5504 47.3849
366 8.74718 5.95289 1.4 18.5726 -59.3331 -72.3555
367 9.49718 5.95289 1.4 19.2026 -68.3408 -112.304
368 10.2472 5.95289 1.4 19.8409 -74.0771 120.155
369 10.9972 5.95289 1.4 20.4868 -66.8892 12.7838
370 11.7472 5.95289 1.4 21.1396 -68.7364 -119.385
371 12.4972 5.95289 1.4 21.7987 -74.8353 110.238
372 13.2472 5.95289 1.4 22.4634 -84.6853 156.783
373 13.9972 5.95289 1.4 23.1334 -75.203 -12.6403
374 14.7472 5.95289 1.4 23.8081 -76.2086 170.29
375 15.4972 5.95289 1.4 24.4872 -250 0
376 16.2472 5.95289 1.4 25.1704 -100.486 -115.105
377 16.9972 5.95289 1.4 25.8572 -88.184 -98.7242
378 17.7472 5.95289 1.4 26.5475 -86.9463 84.7834
379 18.4972 5.95289 1.4 27.2409 -80.3156 -140.277
380 19.2472 5.95289 1.4 27.9372 -75.6978 -67.0387
381 19.9972 5.95289 1.4 28.6363 -72.3954 -33.2169
382 20.7472 5.95289 1.4 29.3379 -73.444 2.07936
383 21.4972 5.95289 1.4 30.0418 -88.3291 -71.0474
384 22.2472 5.95289 1.4 30.7479 -84.0986 -50.1565
385 22.9972 5.95289 1.4 31.456 -75.8416 -12.396
386 23.7472 5.95289 1.4 32.166 -73.672 -35.6748
387 24.4972 5.95289 1.4 32.8778 -71.7792 -20.7492
388 25.2472 5.95289 1.4 33.5913 -78.1803 -164.22
389 25.9972 5.95289 1.4 34.3063 -80.1583 -43.5121
390 26.7472 5.95289 1.4 35.0228 -78.7564 80.8387
391 27.4972 5.95289 1.4 35.7406 -102.698 99.7177
392 28.2472 5.95289 1.4 36.4598 -82.4024 116.625
393 28.9972 5.95289 1.4 37.1801 -88.9249 -93.3749
394 29.7472 5.95289 1.4 37.9017 -77.1849 -113.785
395 30.4972 5.95289 1.4 38.6243 -77.1558 90.0577
396 -28.0028 6.70289 1.4 23.2842 -86.7137 -3.87775
397 -27.2528 6.70289 1.4 22.6015 -92.4947 128.095
398 -26.5028 6.70289 1.4 21.9232 -89.8223 1.93735
399 -25.7528 6.70289 1.4 21.2497 -83.3133 141.194
400 -25.0028 6.70289 1.4 20.5815 -85.2983 -147.919
401 -24.2528 6.70289 1.4 19.9191 -100.65 -34.2708
402 -23.5028 6.70289 1.4 19.2631 -89.7647 -177.574
403 -22.7528 6.70289 1.4 18.6143 -91.0209 -93.2165
