#Rx
# X(m), Y(m), Z(m), Distance(m), Power (dBm) Phase (deg)
1 -28.0028 2.95289 1.4 35.4418 -137.242 122.667
2 -27.2528 2.95289 1.4 34.7367 -150.045 60.762
3 -26.5028 2.95289 1.4 34.0335 -147.769 8.59334
4 -25.7528 2.95289 1.4 33.3324 -149.211 -70.621
5 -25.0028 2.95289 1.4 32.6335 -144.972 76.0751
6 -24.2528 2.95289 1.4 31.9369 -148.765 -150.846
7 -23.5028 2.95289 1.4 31.2427 -133.214 -118.289
8 -22.7528 2.95289 1.4 30.5512 -135.085 -31.7173
9 -22.0028 2.95289 1.4 29.8625 -136.525 144.621
10 -21.2528 2.95289 1.4 29.1769 -143.707 128.753
11 -20.5028 2.95289 1.4 28.4945 -108.081 -178.57
12 -19.7528 2.95289 1.4 27.8155 -103.803 97.0109
13 -19.0028 2.95289 1.4 27.1403 -106.182 -96.3335
14 -18.2528 2.95289 1.4 26.4692 -105.537 -60.1524
15 -17.5028 2.95289 1.4 25.8024 -101.424 -122.512
16 -16.7528 2.95289 1.4 25.1402 -74.7379 40.8217
17 -16.0028 2.95289 1.4 24.4831 -77.3654 -115.826
18 -15.2528 2.95289 1.4 23.8316 -86.6331 -157.869
19 -14.5028 2.95289 1.4 23.1859 -78.9036 75.5557
20 -13.7528 2.95289 1.4 22.5468 -71.4969 178.122
21 -13.0028 2.95289 1.4 21.9146 -70.2641 -136.747
22 -12.2528 2.95289 1.4 21.2901 -78.4332 -8.83255
23 -11.5028 2.95289 1.4 20.674 -72.1692 -53.5811
24 -10.7528 2.95289 1.4 20.067 -69.7301 -27.0812
25 -10.0028 2.95289 1.4 19.4699 -65.66 -64.6407
26 -9.25282 2.95289 1.4 18.8838 -66.077 -121.423
27 -8.50282 2.95289 1.4 18.3096 -67.4057 132.602
28 -7.75282 2.95289 1.4 17.7485 -79.1953 60.3968
29 -7.00282 2.95289 1.4 17.2019 -70.3833 -93.5146
30 -6.25282 2.95289 1.4 16.671 -72.2993 32.0508
31 -5.50282 2.95289 1.4 16.1576 -67.4363 64.6508
32 -4.75282 2.95289 1.4 15.6632 -69.7464 45.4096
33 -4.00282 2.95289 1.4 15.1898 -78.4601 26.2008
34 -3.25282 2.95289 1.4 14.7394 -62.6638 174.748
35 -2.50282 2.95289 1.4 14.3141 -66.1523 117.593
36 -1.75282 2.95289 1.4 13.9163 -72.344 132.505
37 -1.00282 2.95289 1.4 13.5483 -88.8115 175.514
38 -0.25282 2.95289 1.4 13.2127 -76.8486 -8.52001
39 0.49718 2.95289 1.4 12.912 -69.1117 -147.126
40 1.24718 2.95289 1.4 12.6487 -60.5112 -151.351
41 1.99718 2.95289 1.4 12.4251 -63.8746 109.562
42 2.74718 2.95289 1.4 12.2435 -61.685 130.119
43 3.49718 2.95289 1.4 12.1056 -63.5137 -111.658
44 4.24718 2.95289 1.4 12.0131 -62.55 -56.9978
45 4.99718 2.95289 1.4 11.967 -69.3343 146.139
46 5.74718 2.95289 1.4 11.9678 -54.6052 91.0971
47 6.49718 2.95289 1.4 12.0155 -54.2823 -107.419
48 7.24718 2.95289 1.4 12.1096 -56.9972 110.088
49 7.99718 2.95289 1.4 12.2489 -56.6618 62.9035
50 8.74718 2.95289 1.4 12.432 -55.7236 -42.6135
51 9.49718 2.95289 1.4 12.657 -62.0968 -109.239
52 10.2472 2.95289 1.4 12.9216 -74.4083 -81.5911
53 10.9972 2.95289 1.4 13.2236 -65.3584 47.0009
54 11.7472 2.95289 1.4 13.5603 -69.2445 20.8686
55 12.4972 2.95289 1.4 13.9293 -69.6592 -53.3062
56 13.2472 2.95289 1.4 14.3281 -67.6384 -58.6917
57 13.9972 2.95289 1.4 14.7543 -70.9015 -167.516
58 14.7472 2.95289 1.4 15.2055 -73.5597 -35.6328
59 15.4972 2.95289 1.4 15.6797 -68.6875 -11.1577
60 16.2472 2.95289 1.4 16.1747 -91.3715 27.4688
61 16.9972 2.95289 1.4 16.6888 -77.9794 -136.977
62 17.7472 2.95289 1.4 17.2202 -82.1021 -72.7268
63 18.4972 2.95289 1.4 17.7673 -86.4088 -170.955
64 19.2472 2.95289 1.4 18.3289 -78.7727 131.057
65 19.9972 2.95289 1.4 18.9035 -80.2141 40.3152
66 20.7472 2.95289 1.4 19.49 -82.7567 -36.2964
67 21.4972 2.95289 1.4 20.0874 -83.7911 -105.156
68 22.2472 2.95289 1.4 20.6948 -77.0178 88.4735
69 22.9972 2.95289 1.4 21.3112 -80.1493 104.911
70 23.7472 2.95289 1.4 21.936 -80.4398 -29.5792
71 24.4972 2.95289 1.4 22.5684 -83.3862 -75.8437
72 25.2472 2.95289 1.4 23.2078 -79.9276 24.0661
73 25.9972 2.95289 1.4 23.8536 -76.6261 -85.4746
74 26.7472 2.95289 1.4 24.5054 -88.3053 -152.769
75 27.4972 2.95289 1.4 25.1626 -89.5636 134.9
76 28.2472 2.95289 1.4 25.8249 -85.1776 3.73178
77 28.9972 2.95289 1.4 26.4919 -98.5496 100.755
78 29.7472 2.95289 1.4 27.1632 -105.778 -41.7302
79 30.4972 2.95289 1.4 27.8385 -84.298 155.244
80 -28.0028 3.70289 1.4 35.1957 -136.058 -24.9606
81 -27.2528 3.70289 1.4 34.4856 -136.97 31.0782
82 -26.5028 3.70289 1.4 33.7772 -138.872 -15.9749
83 -25.7528 3.70289 1.4 33.0707 -145.985 -73.2443
84 -25.0028 3.70289 1.4 32.3661 -133.771 159.261
85 -24.2528 3.70289 1.4 31.6636 -133.632 -175.551
86 -23.5028 3.70289 1.4 30.9633 -133.877 -151.272
87 -22.7528 3.70289 1.4 30.2655 -131.681 -98.2485
88 -22.0028 3.70289 1.4 29.5701 -136.788 -127.753
89 -21.2528 3.70289 1.4 28.8775 -135.235 -35.1917
90 -20.5028 3.70289 1.4 28.1879 -99.1799 134.099
91 -19.7528 3.70289 1.4 27.5013 -99.8815 -174.026
92 -19.0028 3.70289 1.4 26.8182 -98.3466 151.316
93 -18.2528 3.70289 1.4 26.1388 -95.6768 32.4188
94 -17.5028 3.70289 1.4 25.4633 -92.988 159.836
95 -16.7528 3.70289 1.4 24.7921 -74.8676 -26.3393
96 -16.0028 3.70289 1.4 24.1256 -82.0748 131.614
97 -15.2528 3.70289 1.4 23.4641 -81.9 -43.0463
98 -14.5028 3.70289 1.4 22.8081 -75.7552 91.5197
99 -13.7528 3.70289 1.4 22.158 -71.2463 -130.055
100 -13.0028 3.70289 1.4 21.5144 -74.9618 19.2579
101 -12.2528 3.70289 1.4 20.878 -65.812 84.1866
102 -11.5028 3.70289 1.4 20.2493 -80.0559 94.3455
103 -10.7528 3.70289 1.4 19.6291 -73.7594 149.484
104 -10.0028 3.70289 1.4 19.0183 -70.2409 -174.918
105 -9.25282 3.70289 1.4 18.4178 -69.6369 148.3
106 -8.50282 3.70289 1.4 17.8287 -71.4378 66.0949
107 -7.75282 3.70289 1.4 17.252 -70.5593 51.0365
108 -7.00282 3.70289 1.4 16.689 -72.1556 -58.3399
109 -6.25282 3.70289 1.4 16.1413 -69.6406 151.793
110 -5.50282 3.70289 1.4 15.6105 -76.1481 -112.837
111 -4.75282 3.70289 1.4 15.0982 -69.5103 -60.0916
112 -4.00282 3.70289 1.4 14.6065 -79.2109 -66.2532
113 -3.25282 3.70289 1.4 14.1375 -75.2613 132.362
114 -2.50282 3.70289 1.4 13.6936 -70.9719 -16.1578
115 -1.75282 3.70289 1.4 13.2772 -67.752 -128.706
116 -1.00282 3.70289 1.4 12.891 -71.3718 -96.6805
117 -0.25282 3.70289 1.4 12.5378 -78.8977 -12.087
118 0.49718 3.70289 1.4 12.2205 -66.454 24.205
119 1.24718 3.70289 1.4 11.9419 -65.3003 -38.3149
120 1.99718 3.70289 1.4 11.7048 -65.1586 -17.1301
121 2.74718 3.70289 1.4 11.5118 -62.7872 34.6021
122 3.49718 3.70289 1.4 11.3651 -69.4458 43.1549
123 4.24718 3.70289 1.4 11.2666 -58.8866 41.4239
124 4.99718 3.70289 1.4 11.2174 -71.9397 61.3194
125 5.74718 3.70289 1.4 11.2182 -64.5542 24.1632
126 6.49718 3.70289 1.4 11.2691 -54.62 -158.275
127 7.24718 3.70289 1.4 11.3693 -53.9144 126.924
128 7.99718 3.70289 1.4 11.5176 -58.495 135.816
129 8.74718 3.70289 1.4 11.7122 -56.8848 -153.269
130 9.49718 3.70289 1.4 11.9507 -68.0407 -94.4441
131 10.2472 3.70289 1.4 12.2306 -80.3693 -35.3259
132 10.9972 3.70289 1.4 12.5492 -70.2115 93.8921
133 11.7472 3.70289 1.4 12.9036 -66.6149 -147.125
134 12.4972 3.70289 1.4 13.2908 -68.5697 5.53909
135 13.2472 3.70289 1.4 13.7082 -58.5822 -37.5592
136 13.9972 3.70289 1.4 14.1531 -72.9799 157.94
137 14.7472 3.70289 1.4 14.6229 -67.2743 -130.119
138 15.4972 3.70289 1.4 15.1153 -72.0584 -176.413
139 16.2472 3.70289 1.4 15.6282 -85.8484 39.6189
140 16.9972 3.70289 1.4 16.1597 -82.2759 -48.2482
141 17.7472 3.70289 1.4 16.7079 -78.994 16.4244
142 18.4972 3.70289 1.4 17.2713 -80.8992 62.8172
143 19.2472 3.70289 1.4 17.8485 -77.9322 29.5004
144 19.9972 3.70289 1.4 18.4381 -77.701 23.3982
145 20.7472 3.70289 1.4 19.0389 -77.1911 -84.539
146 21.4972 3.70289 1.4 19.6501 -81.5471 -165.937
147 22.2472 3.70289 1.4 20.2705 -82.6236 52.5964
148 22.9972 3.70289 1.4 20.8995 -78.1428 -37.6729
149 23.7472 3.70289 1.4 21.5362 -78.9236 -36.1055
150 24.4972 3.70289 1.4 22.18 -75.5347 -104.08
151 25.2472 3.70289 1.4 22.8303 -81.3144 146.357
152 25.9972 3.70289 1.4 23.4865 -95.5818 -95.7027
153 26.7472 3.70289 1.4 24.1482 -82.3916 -169.065
154 27.4972 3.70289 1.4 24.8149 -91.0549 -80.03
155 28.2472 3.70289 1.4 25.4862 -80.8865 -32.338
156 28.9972 3.70289 1.4 26.1618 -85.2054 -34.4137
157 29.7472 3.70289 1.4 26.8414 -82.7318 58.1411
158 30.4972 3.70289 1.4 27.5246 -91.5305 163.857
159 -28.0028 4.45289 1.4 34.964 -127.006 -24.7922
160 -27.2528 4.45289 1.4 34.2491 -134.648 -74.9973
161 -26.5028 4.45289 1.4 33.5358 -139.256 91.4296
162 -25.7528 4.45289 1.4 32.824 -132.337 175.36
163 -25.0028 4.45289 1.4 32.114 -147.728 -156.155
164 -24.2528 4.45289 1.4 31.4059 -131.222 39.4534
165 -23.5028 4.45289 1.4 30.6997 -140.001 -62.5832
166 -22.7528 4.45289 1.4 29.9957 -139.76 78.6345
167 -22.0028 4.45289 1.4 29.294 -138.737 104.697
168 -21.2528 4.45289 1.4 28.5947 -137.656 5.23798
169 -20.5028 4.45289 1.4 27.898 -91.199 122.787
170 -19.7528 4.45289 1.4 27.2042 -98.4843 -124.347
171 -19.0028 4.45289 1.4 26.5135 -103.458 139.755
172 -18.2528 4.45289 1.4 25.826 -105.012 102.464
173 -17.5028 4.45289 1.4 25.1421 -88.4511 116.746
174 -16.7528 4.45289 1.4 24.4621 -78.8007 -136.154
175 -16.0028 4.45289 1.4 23.7863 -87.8663 -109.648
176 -15.2528 4.45289 1.4 23.1151 -78.6059 -58.9833
177 -14.5028 4.45289 1.4 22.4489 -71.868 83.5585
178 -13.7528 4.45289 1.4 21.7881 -68.5317 -99.448
179 -13.0028 4.45289 1.4 21.1333 -71.0704 77.1529
180 -12.2528 4.45289 1.4 20.485 -75.8462 162.603
181 -11.5028 4.45289 1.4 19.8439 -72.8432 -65.3651
182 -10.7528 4.45289 1.4 19.2106 -69.873 -67.0114
183 -10.0028 4.45289 1.4 18.5861 -71.3867 -38.7785
184 -9.25282 4.45289 1.4 17.9711 -70.1177 41.9236
185 -8.50282 4.45289 1.4 17.3668 -89.6876 97.3753
186 -7.75282 4.45289 1.4 16.7742 -70.6971 -11.6045
187 -7.00282 4.45289 1.4 16.1947 -70.367 -71.503
188 -6.25282 4.45289 1.4 15.6297 -65.3555 -158.432
189 -5.50282 4.45289 1.4 15.0809 -72.9372 50.5674
190 -4.75282 4.45289 1.4 14.55 -81.1257 177.687
191 -4.00282 4.45289 1.4 14.0391 -69.4546 -136.388
192 -3.25282 4.45289 1.4 13.5505 -61.4588 119.224
193 -2.50282 4.45289 1.4 13.0866 -65.0947 103.828
194 -1.75282 4.45289 1.4 12.6502 -63.0578 -83.0066
195 -1.00282 4.45289 1.4 12.2443 -74.8544 27.6768
196 -0.25282 4.45289 1.4 11.8719 -65.7758 32.6115
197 0.49718 4.45289 1.4 11.5363 -62.5235 138.926
198 1.24718 4.45289 1.4 11.2407 -60.2673 80.5162
199 1.99718 4.45289 1.4 10.9886 -69.7293 42.8931
200 2.74718 4.45289 1.4 10.7827 -65.4225 1.3108
201 3.49718 4.45289 1.4 10.626 -67.1838 146.578
202 4.24718 4.45289 1.4 10.5205 -66.0406 158.611
203 4.99718 4.45289 1.4 10.4678 -58.8989 -97.7744
204 5.74718 4.45289 1.4 10.4687 -63.9949 77.2448
205 6.49718 4.45289 1.4 10.5232 -56.6276 -39.1577
206 7.24718 4.45289 1.4 10.6305 -55.2116 162.507
207 7.99718 4.45289 1.4 10.7889 -56.7755 65.0358
208 8.74718 4.45289 1.4 10.9964 -61.384 -92.2567
209 9.49718 4.45289 1.4 11.2501 -55.1161 -138.06
210 10.2472 4.45289 1.4 11.547 -72.2958 121.556
211 10.9972 4.45289 1.4 11.8839 -64.6436 -116.13
212 11.7472 4.45289 1.4 12.2575 -71.5257 9.40715
213 12.4972 4.45289 1.4 12.6646 -57.4159 164.671
214 13.2472 4.45289 1.4 13.1019 -59.3211 -111.035
215 13.9972 4.45289 1.4 13.5667 -67.037 105.754
216 14.7472 4.45289 1.4 14.0561 -75.8764 12.7084
217 15.4972 4.45289 1.4 14.5677 -78.5949 -152.348
218 16.2472 4.45289 1.4 15.0992 -75.398 68.3852
219 16.9972 4.45289 1.4 15.6487 -87.5296 147.535
220 17.7472 4.45289 1.4 16.2142 -82.1156 -171.725
221 18.4972 4.45289 1.4 16.7942 -75.4671 -145.31
222 19.2472 4.45289 1.4 17.3872 -80.2106 -130.822
223 19.9972 4.45289 1.4 17.9919 -80.167 -109.983
224 20.7472 4.45289 1.4 18.6072 -85.6128 -135.99
225 21.4972 4.45289 1.4 19.232 -72.864 153.51
226 22.2472 4.45289 1.4 19.8655 -74.2214 110.856
227 22.9972 4.45289 1.4 20.5069 -83.6931 1.69487
228 23.7472 4.45289 1.4 21.1554 -73.4704 -163.048
229 24.4972 4.45289 1.4 21.8105 -73.6653 -38.0731
230 25.2472 4.45289 1.4 22.4714 -78.5351 117.614
231 25.9972 4.45289 1.4 23.1378 -81.8525 -58.555
232 26.7472 4.45289 1.4 23.8092 -85.4469 118.556
233 27.4972 4.45289 1.4 24.4852 -85.9874 -171.882
234 28.2472 4.45289 1.4 25.1653 -78.4362 168.612
235 28.9972 4.45289 1.4 25.8493 -81.4109 -153.928
236 29.7472 4.45289 1.4 26.5369 -87.0853 -102.595
237 30.4972 4.45289 1.4 27.2277 -87.5984 -44.9192
238 -28.0028 5.20289 1.4 34.747 -116.553 -33.3214
239 -27.2528 5.20289 1.4 34.0275 -95.1074 86.091
240 -26.5028 5.20289 1.4 33.3094 -123.289 168.7
241 -25.7528 5.20289 1.4 32.5927 -114.416 -43.7313
242 -25.0028 5.20289 1.4 31.8776 -115.637 -159.808
243 -24.2528 5.20289 1.4 31.1641 -137.507 -50.3364
244 -23.5028 5.20289 1.4 30.4523 -127.902 -112.328
245 -22.7528 5.20289 1.4 29.7424 -137.75 -89.0928
246 -22.0028 5.20289 1.4 29.0346 -143.226 -98.6475
247 -21.2528 5.20289 1.4 28.3289 -133.871 62.0716
248 -20.5028 5.20289 1.4 27.6255 -111.824 54.7155
249 -19.7528 5.20289 1.4 26.9247 -90.26 -146.703
250 -19.0028 5.20289 1.4 26.2266 -107.059 -84.2237
251 -18.2528 5.20289 1.4 25.5314 -96.6222 56.016
252 -17.5028 5.20289 1.4 24.8394 -90.9468 27.5699
253 -16.7528 5.20289 1.4 24.1509 -85.3614 108.786
254 -16.0028 5.20289 1.4 23.4661 -86.0119 -130.438
255 -15.2528 5.20289 1.4 22.7855 -86.6943 162.867
256 -14.5028 5.20289 1.4 22.1093 -91.2846 41.245
257 -13.7528 5.20289 1.4 21.4381 -76.8832 -36.2398
258 -13.0028 5.20289 1.4 20.7723 -83.2278 96.5213
259 -12.2528 5.20289 1.4 20.1123 -75.0168 -179.735
260 -11.5028 5.20289 1.4 19.4589 -70.6842 -116.191
261 -10.7528 5.20289 1.4 18.8127 -82.9895 -35.3533
262 -10.0028 5.20289 1.4 18.1745 -69.2144 148.942
263 -9.25282 5.20289 1.4 17.5451 -84.3325 -119.858
264 -8.50282 5.20289 1.4 16.9256 -73.7622 -91.2817
265 -7.75282 5.20289 1.4 16.317 -72.1067 -117.219
266 -7.00282 5.20289 1.4 15.7207 -73.5084 -101.929
267 -6.25282 5.20289 1.4 15.138 -71.8749 -155.356
268 -5.50282 5.20289 1.4 14.5706 -68.0275 83.6524
269 -4.75282 5.20289 1.4 14.0204 -71.3891 -58.3435
270 -4.00282 5.20289 1.4 13.4895 -69.13 85.3773
271 -3.25282 5.20289 1.4 12.9802 -59.908 31.4372
272 -2.50282 5.20289 1.4 12.4952 -70.3943 -17.0333
273 -1.75282 5.20289 1.4 12.0374 -66.5132 -56.8486
274 -1.00282 5.20289 1.4 11.61 -63.0555 89.597
275 -0.25282 5.20289 1.4 11.2166 -67.0794 139.899
276 0.49718 5.20289 1.4 10.8607 -60.1545 67.1333
277 1.24718 5.20289 1.4 10.5463 -62.3509 -177.976
278 1.99718 5.20289 1.4 10.2771 -69.1112 -20.3383
279 2.74718 5.20289 1.4 10.0567 -62.9358 1.42516
280 3.49718 5.20289 1.4 9.88847 -70.2093 118.483
281 4.24718 5.20289 1.4 9.77502 -55.7836 98.4967
282 4.99718 5.20289 1.4 9.71829 -63.5628 -149.168
283 5.74718 5.20289 1.4 9.71927 -63.38 150.595
284 6.49718 5.20289 1.4 9.77795 -54.8018 -87.0459
285 7.24718 5.20289 1.4 9.8933 -54.439 161.965
286 7.99718 5.20289 1.4 10.0634 -55.6952 4.90566
287 8.74718 5.20289 1.4 10.2855 -56.0713 74.8095
288 9.49718 5.20289 1.4 10.5563 -55.504 85.8663
289 10.2472 5.20289 1.4 10.8722 -74.7908 -18.6621
290 10.9972 5.20289 1.4 11.2293 -73.9673 40.6913
291 11.7472 5.20289 1.4 11.624 -63.5877 -43.099
292 12.4972 5.20289 1.4 12.0524 -60.4059 145.423
293 13.2472 5.20289 1.4 12.5112 -71.1556 -8.98649
294 13.9972 5.20289 1.4 12.9971 -89.0469 -175.114
295 14.7472 5.20289 1.4 13.5072 -92.2603 6.13541
296 15.4972 5.20289 1.4 14.0388 -81.4298 -156.064
297 16.2472 5.20289 1.4 14.5896 -76.4354 -10.5471
298 16.9972 5.20289 1.4 15.1575 -91.1517 161.193
299 17.7472 5.20289 1.4 15.7407 -100.948 67.7782
300 18.4972 5.20289 1.4 16.3375 -78.5563 12.0854
301 19.2472 5.20289 1.4 16.9465 -77.3442 57.3964
302 19.9972 5.20289 1.4 17.5664 -79.8368 58.2037
303 20.7472 5.20289 1.4 18.1961 -76.3555 90.2995
304 21.4972 5.20289 1.4 18.8346 -75.6744 65.6866
305 22.2472 5.20289 1.4 19.481 -74.3361 25.1794
306 22.9972 5.20289 1.4 20.1346 -80.2256 55.3143
307 23.7472 5.20289 1.4 20.7948 -67.5754 -139.652
308 24.4972 5.20289 1.4 21.4608 -70.7688 -171.865
309 25.2472 5.20289 1.4 22.1322 -76.6217 98.0691
310 25.9972 5.20289 1.4 22.8086 -77.52 -156.93
311 26.7472 5.20289 1.4 23.4893 -79.0004 -118.828
312 27.4972 5.20289 1.4 24.1742 -83.3504 78.0521
313 28.2472 5.20289 1.4 24.8629 -85.4667 109.697
314 28.9972 5.20289 1.4 25.555 -82.996 82.0642
315 29.7472 5.20289 1.4 26.2503 -88.2655 134.448
316 30.4972 5.20289 1.4 26.9485 -83.3956 -18.4109
317 -28.0028 5.95289 1.4 34.5449 -100.641 140.66
318 -27.2528 5.95289 1.4 33.8211 -95.6006 45.5549
319 -26.5028 5.95289 1.4 33.0985 -112.133 144.255
320 -25.7528 5.95289 1.4 32.3772 -93.7737 -1.52338
321 -25.0028 5.95289 1.4 31.6572 -111.829 157.366
322 -24.2528 5.95289 1.4 30.9386 -132.964 168.913
323 -23.5028 5.95289 1.4 30.2215 -137.574 -79.331
324 -22.7528 5.95289 1.4 29.5061 -132.438 -1.25247
325 -22.0028 5.95289 1.4 28.7924 -136.645 -114.108
326 -21.2528 5.95289 1.4 28.0806 -140.776 -22.7876
327 -20.5028 5.95289 1.4 27.3709 -97.0636 37.0562
328 -19.7528 5.95289 1.4 26.6634 -88.9375 -118.962
329 -19.0028 5.95289 1.4 25.9582 -87.1432 -41.7175
330 -18.2528 5.95289 1.4 25.2557 -83.5261 119.163
331 -17.5028 5.95289 1.4 24.5559 -85.9218 -58.1237
332 -16.7528 5.95289 1.4 23.8592 -86.3338 -38.1104
333 -16.0028 5.95289 1.4 23.1658 -88.4529 84.9211
334 -15.2528 5.95289 1.4 22.4761 -91.3699 67.0818
335 -14.5028 5.95289 1.4 21.7903 -85.6558 -107.095
336 -13.7528 5.95289 1.4 21.1089 -88.9028 118.989
337 -13.0028 5.95289 1.4 20.4324 -89.5678 177.61
338 -12.2528 5.95289 1.4 19.7611 -69.3552 73.5557
339 -11.5028 5.95289 1.4 19.0957 -77.0663 -117.641
340 -10.7528 5.95289 1.4 18.4368 -72.9246 34.5867
341 -10.0028 5.95289 1.4 17.7851 -68.7363 138.614
342 -9.25282 5.95289 1.4 17.1414 -76.4047 -44.8662
343 -8.50282 5.95289 1.4 16.5067 -82.6538 42.4322
344 -7.75282 5.95289 1.4 15.8821 -75.3005 84.5512
345 -7.00282 5.95289 1.4 15.2687 -68.1249 63.6636
346 -6.25282 5.95289 1.4 14.6681 -76.473 104.859
347 -5.50282 5.95289 1.4 14.0818 -69.1333 41.365
348 -4.75282 5.95289 1.4 13.5117 -67.8384 -32.5718
349 -4.00282 5.95289 1.4 12.96 -64.842 -169.108
350 -3.25282 5.95289 1.4 12.429 -80.6545 -92.6251
351 -2.50282 5.95289 1.4 11.9216 -64.6342 -99.8418
352 -1.75282 5.95289 1.4 11.4409 -68.1761 -124.229
353 -1.00282 5.95289 1.4 10.9903 -68.4676 143.355
354 -0.25282 5.95289 1.4 10.5739 -64.1683 -84.5225
355 0.49718 5.95289 1.4 10.1956 -66.6862 -54.4262
356 1.24718 5.95289 1.4 9.86001 -73.0649 -80.9404
357 1.99718 5.95289 1.4 9.57152 -66.7811 -46.8989
358 2.74718 5.95289 1.4 9.33451 -66.6294 -92.4411
359 3.49718 5.95289 1.4 9.15298 -71.7159 -119.406
360 4.24718 5.95289 1.4 9.03029 -55.2133 89.8958
361 4.99718 5.95289 1.4 8.96885 -55.3078 43.6587
362 5.74718 5.95289 1.4 8.96992 -68.6452 66.9122
363 6.49718 5.95289 1.4 9.03347 -65.1397 131.628
364 7.24718 5.95289 1.4 9.1582 -57.2368 134.721
365 7.99718 5.95289 1.4 9.34167 -53.5079 26.1116
366 8.74718 5.95289 1.4 9.58049 -59.4096 110.795
367 9.49718 5.95289 1.4 9.87066 -54.8017 -82.5191
368 10.2472 5.95289 1.4 10.2078 -78.7652 145.483
369 10.9972 5.95289 1.4 10.5874 -64.5788 149.426
370 11.7472 5.95289 1.4 11.0051 -59.4618 -12.1312
371 12.4972 5.95289 1.4 11.4567 -59.1902 102.36
372 13.2472 5.95289 1.4 11.9384 -60.4511 -177.899
373 13.9972 5.95289 1.4 12.4467 -60.4455 -169.032
374 14.7472 5.95289 1.4 12.9784 -70.9044 2.03365
375 15.4972 5.95289 1.4 13.5308 -99.7221 -58.7292
376 16.2472 5.95289 1.4 14.1015 -110.637 -144.053
377 16.9972 5.95289 1.4 14.6883 -91.517 61.806
378 17.7472 5.95289 1.4 15.2894 -87.2181 82.582
379 18.4972 5.95289 1.4 15.9031 -87.4402 -172.327
380 19.2472 5.95289 1.4 16.5281 -79.5241 -146.139
381 19.9972 5.95289 1.4 17.1631 -79.4731 -94.7048
382 20.7472 5.95289 1.4 17.8071 -75.0787 -84.2551
383 21.4972 5.95289 1.4 18.459 -81.7962 76.9525
384 22.2472 5.95289 1.4 19.1182 -72.0784 -81.5437
385 22.9972 5.95289 1.4 19.7838 -73.7226 141.716
386 23.7472 5.95289 1.4 20.4553 -68.8283 86.8579
387 24.4972 5.95289 1.4 21.132 -72.1157 147.256
388 25.2472 5.95289 1.4 21.8136 -77.0621 60.7057
389 25.9972 5.95289 1.4 22.4995 -84.1494 -155.519
390 26.7472 5.95289 1.4 23.1893 -74.7994 -31.1368
391 27.4972 5.95289 1.4 23.8828 -80.7636 84.1946
392 28.2472 5.95289 1.4 24.5796 -82.0545 -55.8966
393 28.9972 5.95289 1.4 25.2795 -88.7879 -167.779
394 29.7472 5.95289 1.4 25.9821 -84.1339 175.117
395 30.4972 5.95289 1.4 26.6874 -93.563 -70.6432
396 -28.0028 6.70289 1.4 34.358 -119.46 -17.594
397 -27.2528 6.70289 1.4 33.6302 -98.5721 13.9165
398 -26.5028 6.70289 1.4 32.9034 -112.845 169.235
399 -25.7528 6.70289 1.4 32.1777 -127.265 -110.612
400 -25.0028 6.70289 1.4 31.4531 -106.401 130.216
401 -24.2528 6.70289 1.4 30.7297 -123.769 42.7847
402 -23.5028 6.70289 1.4 30.0077 -137.809 -83.991
403 -22.7528 6.70289 1.4 29.287 -140.865 -40.7661
