#Rx
# X(m), Y(m), Z(m), Distance(m), Power (dBm) Phase (deg)
1 -28.0028 2.95289 1.4 51.4926 -250 0
2 -27.2528 2.95289 1.4 50.7876 -250 0
3 -26.5028 2.95289 1.4 50.0839 -250 0
4 -25.7528 2.95289 1.4 49.3816 -250 0
5 -25.0028 2.95289 1.4 48.6806 -250 0
6 -24.2528 2.95289 1.4 47.9812 -250 0
7 -23.5028 2.95289 1.4 47.2833 -250 0
8 -22.7528 2.95289 1.4 46.587 -250 0
9 -22.0028 2.95289 1.4 45.8925 -250 0
10 -21.2528 2.95289 1.4 45.1997 -250 0
11 -20.5028 2.95289 1.4 44.5087 -121.013 36.6656
12 -19.7528 2.95289 1.4 43.8197 -118.253 145.684
13 -19.0028 2.95289 1.4 43.1327 -108.704 -149.384
14 -18.2528 2.95289 1.4 42.4479 -113.66 -116.088
15 -17.5028 2.95289 1.4 41.7653 -186.183 172.477
16 -16.7528 2.95289 1.4 41.085 -111.323 108.818
17 -16.0028 2.95289 1.4 40.4073 -96.632 29.4549
18 -15.2528 2.95289 1.4 39.7321 -89.6767 -87.2435
19 -14.5028 2.95289 1.4 39.0596 -101.505 -87.6739
20 -13.7528 2.95289 1.4 38.39 -96.1945 -105.35
21 -13.0028 2.95289 1.4 37.7235 -89.9562 43.9943
22 -12.2528 2.95289 1.4 37.0601 -92.2828 -74.8307
23 -11.5028 2.95289 1.4 36.4001 -91.6356 6.14584
24 -10.7528 2.95289 1.4 35.7437 -92.028 135.944
25 -10.0028 2.95289 1.4 35.091 -89.0712 35.6325
26 -9.25282 2.95289 1.4 34.4422 -103.731 -148.321
27 -8.50282 2.95289 1.4 33.7977 -96.5054 175.155
28 -7.75282 2.95289 1.4 33.1576 -95.6676 -174.621
29 -7.00282 2.95289 1.4 32.5221 -91.3548 -101.628
30 -6.25282 2.95289 1.4 31.8917 -96.1197 -147.977
31 -5.50282 2.95289 1.4 31.2666 -111.909 -27.9139
32 -4.75282 2.95289 1.4 30.647 -103.68 22.6775
33 -4.00282 2.95289 1.4 30.0334 -106.617 164.013
34 -3.25282 2.95289 1.4 29.4261 -103.038 -167.007
35 -2.50282 2.95289 1.4 28.8255 -90.2866 95.41
36 -1.75282 2.95289 1.4 28.2321 -91.137 -158.863
37 -1.00282 2.95289 1.4 27.6463 -92.6959 64.5322
38 -0.25282 2.95289 1.4 27.0686 -103.074 -37.1483
39 0.49718 2.95289 1.4 26.4995 -88.611 116.813
40 1.24718 2.95289 1.4 25.9397 -91.1117 -49.7068
41 1.99718 2.95289 1.4 25.3896 -83.9599 -9.70013
42 2.74718 2.95289 1.4 24.85 -93.8189 -45.19
43 3.49718 2.95289 1.4 24.3216 -90.3154 -5.80344
44 4.24718 2.95289 1.4 23.8051 -71.6038 153.027
45 4.99718 2.95289 1.4 23.3012 -73.1199 -99.1947
46 5.74718 2.95289 1.4 22.8109 -70.5631 169.233
47 6.49718 2.95289 1.4 22.3351 -67.6398 -171.735
48 7.24718 2.95289 1.4 21.8745 -71.4099 139.778
49 7.99718 2.95289 1.4 21.4304 -71.7171 -63.1596
50 8.74718 2.95289 1.4 21.0036 -86.1717 -29.1597
51 9.49718 2.95289 1.4 20.5954 -81.6597 -152.244
52 10.2472 2.95289 1.4 20.2067 -70.8099 -44.4101
53 10.9972 2.95289 1.4 19.8387 -66.5109 -2.65459
54 11.7472 2.95289 1.4 19.4927 -71.1845 -153.443
55 12.4972 2.95289 1.4 19.1698 -64.008 -141.011
56 13.2472 2.95289 1.4 18.8713 -70.9847 155.706
57 13.9972 2.95289 1.4 18.5981 -68.6674 133.732
58 14.7472 2.95289 1.4 18.3516 -77.5648 166.656
59 15.4972 2.95289 1.4 18.1328 -82.821 -115.485
60 16.2472 2.95289 1.4 17.9426 -72.3612 -57.0455
61 16.9972 2.95289 1.4 17.7821 -77.9639 -20.708
62 17.7472 2.95289 1.4 17.6521 -51.1219 9.94068
63 18.4972 2.95289 1.4 17.5531 -63.8264 -7.09505
64 19.2472 2.95289 1.4 17.4858 -66.8697 4.98252
65 19.9972 2.95289 1.4 17.4505 -55.4893 167.776
66 20.7472 2.95289 1.4 17.4474 -59.2794 168.025
67 21.4972 2.95289 1.4 17.4764 -63.5013 70.9266
68 22.2472 2.95289 1.4 17.5376 -66.0809 -94.0447
69 22.9972 2.95289 1.4 17.6305 -63.3782 -12.7946
70 23.7472 2.95289 1.4 17.7546 -52.0292 124.837
71 24.4972 2.95289 1.4 17.9092 -61.9533 109.612
72 25.2472 2.95289 1.4 18.0937 -70.7198 -8.2606
73 25.9972 2.95289 1.4 18.307 -60.9045 179.57
74 26.7472 2.95289 1.4 18.5483 -66.3922 -20.895
75 27.4972 2.95289 1.4 18.8163 -78.3922 26.3055
76 28.2472 2.95289 1.4 19.1101 -85.2624 74.4337
77 28.9972 2.95289 1.4 19.4284 -68.0253 97.4546
78 29.7472 2.95289 1.4 19.77 -59.5574 21.6869
79 30.4972 2.95289 1.4 20.1338 -72.1574 -60.9611
80 -28.0028 3.70289 1.4 51.2434 -250 0
81 -27.2528 3.70289 1.4 50.5349 -250 0
82 -26.5028 3.70289 1.4 49.8276 -250 0
83 -25.7528 3.70289 1.4 49.1216 -250 0
84 -25.0028 3.70289 1.4 48.4169 -250 0
85 -24.2528 3.70289 1.4 47.7136 -250 0
86 -23.5028 3.70289 1.4 47.0118 -250 0
87 -22.7528 3.70289 1.4 46.3114 -250 0
88 -22.0028 3.70289 1.4 45.6126 -250 0
89 -21.2528 3.70289 1.4 44.9155 -250 0
90 -20.5028 3.70289 1.4 44.2201 -132.58 -31.5172
91 -19.7528 3.70289 1.4 43.5266 -137.734 58.1323
92 -19.0028 3.70289 1.4 42.8349 -126.499 -73.9703
93 -18.2528 3.70289 1.4 42.1452 -118.006 49.577
94 -17.5028 3.70289 1.4 41.4576 -143.069 113.401
95 -16.7528 3.70289 1.4 40.7722 -96.8429 70.5742
96 -16.0028 3.70289 1.4 40.0892 -106.02 -53.2297
97 -15.2528 3.70289 1.4 39.4085 -100.187 -98.1698
98 -14.5028 3.70289 1.4 38.7305 -95.6468 -134.626
99 -13.7528 3.70289 1.4 38.0551 -100.143 108.236
100 -13.0028 3.70289 1.4 37.3826 -97.852 119.536
101 -12.2528 3.70289 1.4 36.713 -88.6844 -71.658
102 -11.5028 3.70289 1.4 36.0467 -87.7457 -55.7626
103 -10.7528 3.70289 1.4 35.3837 -78.8346 -123.546
104 -10.0028 3.70289 1.4 34.7242 -90.0367 99.8939
105 -9.25282 3.70289 1.4 34.0685 -91.6741 80.0827
106 -8.50282 3.70289 1.4 33.4167 -93.6121 -82.9966
107 -7.75282 3.70289 1.4 32.7692 -104.375 -56.687
108 -7.00282 3.70289 1.4 32.1261 -111.457 -97.3011
109 -6.25282 3.70289 1.4 31.4877 -122.977 -176.911
110 -5.50282 3.70289 1.4 30.8544 -107.162 22.0196
111 -4.75282 3.70289 1.4 30.2264 -98.7255 -42.4854
112 -4.00282 3.70289 1.4 29.604 -113.785 93.646
113 -3.25282 3.70289 1.4 28.9878 -92.2053 -5.25009
114 -2.50282 3.70289 1.4 28.3779 -93.7403 135.614
115 -1.75282 3.70289 1.4 27.775 -95.3158 -85.3594
116 -1.00282 3.70289 1.4 27.1793 -107.075 -22.3911
117 -0.25282 3.70289 1.4 26.5914 -109.063 2.10385
118 0.49718 3.70289 1.4 26.0119 -84.9619 -162.527
119 1.24718 3.70289 1.4 25.4414 -102.799 -71.9827
120 1.99718 3.70289 1.4 24.8803 -88.8723 -138.284
121 2.74718 3.70289 1.4 24.3294 -93.527 -179.848
122 3.49718 3.70289 1.4 23.7894 -83.9233 121.984
123 4.24718 3.70289 1.4 23.2611 -70.5185 -72.7927
124 4.99718 3.70289 1.4 22.7452 -83.3846 -66.4339
125 5.74718 3.70289 1.4 22.2426 -73.816 144.384
126 6.49718 3.70289 1.4 21.7543 -68.1993 87.0363
127 7.24718 3.70289 1.4 21.2812 -76.997 114.604
128 7.99718 3.70289 1.4 20.8244 -71.2558 -104.027
129 8.74718 3.70289 1.4 20.385 -111.117 -77.1153
130 9.49718 3.70289 1.4 19.9641 -76.7684 111.942
131 10.2472 3.70289 1.4 19.5629 -72.9585 82.595
132 10.9972 3.70289 1.4 19.1826 -69.4672 -107.033
133 11.7472 3.70289 1.4 18.8245 -67.8134 41.459
134 12.4972 3.70289 1.4 18.49 -64.2219 -141.485
135 13.2472 3.70289 1.4 18.1802 -63.9654 -49.8283
136 13.9972 3.70289 1.4 17.8965 -73.3801 30.0331
137 14.7472 3.70289 1.4 17.6402 -70.0939 149.579
138 15.4972 3.70289 1.4 17.4124 -81.0258 -161.716
139 16.2472 3.70289 1.4 17.2144 -75.8377 95.1234
140 16.9972 3.70289 1.4 17.047 -79.4636 -5.91863
141 17.7472 3.70289 1.4 16.9113 -52.5125 48.5337
142 18.4972 3.70289 1.4 16.808 -63.1708 27.5024
143 19.2472 3.70289 1.4 16.7376 -65.2306 86.6647
144 19.9972 3.70289 1.4 16.7007 -55.8906 171.208
145 20.7472 3.70289 1.4 16.6975 -65.6929 161.879
146 21.4972 3.70289 1.4 16.7279 -70.7659 -116.411
147 22.2472 3.70289 1.4 16.7917 -74.7214 -74.6061
148 22.9972 3.70289 1.4 16.8887 -60.3853 164.365
149 23.7472 3.70289 1.4 17.0182 -55.8224 -126.678
150 24.4972 3.70289 1.4 17.1795 -58.0662 -103.019
151 25.2472 3.70289 1.4 17.3717 -60.0225 8.57739
152 25.9972 3.70289 1.4 17.5938 -65.0174 -142.325
153 26.7472 3.70289 1.4 17.8447 -78.9965 -87.4961
154 27.4972 3.70289 1.4 18.1232 -61.6397 7.43442
155 28.2472 3.70289 1.4 18.428 -68.3454 -32.6618
156 28.9972 3.70289 1.4 18.7579 -59.2197 -99.6976
157 29.7472 3.70289 1.4 19.1115 -76.5736 -173.902
158 30.4972 3.70289 1.4 19.4875 -69.4909 -114.273
159 -28.0028 4.45289 1.4 51.004 -250 0
160 -27.2528 4.45289 1.4 50.2921 -250 0
161 -26.5028 4.45289 1.4 49.5814 -250 0
162 -25.7528 4.45289 1.4 48.8718 -250 0
163 -25.0028 4.45289 1.4 48.1635 -250 0
164 -24.2528 4.45289 1.4 47.4564 -250 0
165 -23.5028 4.45289 1.4 46.7507 -250 0
166 -22.7528 4.45289 1.4 46.0464 -250 0
167 -22.0028 4.45289 1.4 45.3435 -250 0
168 -21.2528 4.45289 1.4 44.6422 -250 0
169 -20.5028 4.45289 1.4 43.9425 -158.579 -9.34235
170 -19.7528 4.45289 1.4 43.2444 -132.382 -10.6315
171 -19.0028 4.45289 1.4 42.5482 -133.573 -173.749
172 -18.2528 4.45289 1.4 41.8538 -132.84 75.2094
173 -17.5028 4.45289 1.4 41.1613 -140.216 -54.8689
174 -16.7528 4.45289 1.4 40.4709 -98.607 1.30807
175 -16.0028 4.45289 1.4 39.7827 -103.122 152.166
176 -15.2528 4.45289 1.4 39.0967 -103.119 -29.852
177 -14.5028 4.45289 1.4 38.4131 -102.31 -174.389
178 -13.7528 4.45289 1.4 37.7321 -100.293 -141.422
179 -13.0028 4.45289 1.4 37.0537 -93.8043 -138.696
180 -12.2528 4.45289 1.4 36.3781 -86.1726 69.9224
181 -11.5028 4.45289 1.4 35.7055 -87.1528 -52.3721
182 -10.7528 4.45289 1.4 35.0361 -102.039 -7.75108
183 -10.0028 4.45289 1.4 34.3699 -90.7302 -165.847
184 -9.25282 4.45289 1.4 33.7073 -98.0554 -51.0861
185 -8.50282 4.45289 1.4 33.0484 -90.5491 -129.984
186 -7.75282 4.45289 1.4 32.3935 -96.9313 150.82
187 -7.00282 4.45289 1.4 31.7428 -92.748 100.539
188 -6.25282 4.45289 1.4 31.0966 -99.6023 121.765
189 -5.50282 4.45289 1.4 30.4551 -103.967 59.5795
190 -4.75282 4.45289 1.4 29.8187 -112.537 -68.3256
191 -4.00282 4.45289 1.4 29.1877 -121.559 83.6247
192 -3.25282 4.45289 1.4 28.5624 -93.8711 -6.05724
193 -2.50282 4.45289 1.4 27.9433 -93.5049 177.996
194 -1.75282 4.45289 1.4 27.3307 -104.816 -34.8144
195 -1.00282 4.45289 1.4 26.7252 -109.963 -117.352
196 -0.25282 4.45289 1.4 26.1271 -100.732 -101.109
197 0.49718 4.45289 1.4 25.5371 -81.8841 2.66287
198 1.24718 4.45289 1.4 24.9556 -95.4532 -66.388
199 1.99718 4.45289 1.4 24.3834 -92.6074 165.927
200 2.74718 4.45289 1.4 23.821 -99.6903 153.202
201 3.49718 4.45289 1.4 23.2692 -88.1994 -145.752
202 4.24718 4.45289 1.4 22.7288 -68.3079 63.7229
203 4.99718 4.45289 1.4 22.2005 -65.1989 172.448
204 5.74718 4.45289 1.4 21.6853 -68.154 -26.7735
205 6.49718 4.45289 1.4 21.1842 -71.1248 12.7435
206 7.24718 4.45289 1.4 20.6981 -68.6405 -42.4446
207 7.99718 4.45289 1.4 20.2281 -67.3289 -60.1145
208 8.74718 4.45289 1.4 19.7755 -70.9765 104.51
209 9.49718 4.45289 1.4 19.3413 -78.6363 -18.7234
210 10.2472 4.45289 1.4 18.9269 -71.0669 129.783
211 10.9972 4.45289 1.4 18.5335 -66.3126 -104.191
212 11.7472 4.45289 1.4 18.1627 -63.4722 86.1107
213 12.4972 4.45289 1.4 17.8157 -61.1474 -166.898
214 13.2472 4.45289 1.4 17.494 -68.5855 -96.3348
215 13.9972 4.45289 1.4 17.199 -75.7384 -56.265
216 14.7472 4.45289 1.4 16.9321 -83.961 -163.452
217 15.4972 4.45289 1.4 16.6947 -73.7487 -73.8777
218 16.2472 4.45289 1.4 16.488 -75.8689 -139.252
219 16.9972 4.45289 1.4 16.3132 -74.8876 53.7522
220 17.7472 4.45289 1.4 16.1713 -59.6675 -79.9119
221 18.4972 4.45289 1.4 16.0632 -59.8312 15.2903
222 19.2472 4.45289 1.4 15.9896 -59.7871 132.505
223 19.9972 4.45289 1.4 15.951 -61.3566 -35.5454
224 20.7472 4.45289 1.4 15.9476 -63.3246 -140.219
225 21.4972 4.45289 1.4 15.9794 -65.7649 -138.724
226 22.2472 4.45289 1.4 16.0463 -60.5058 162.7
227 22.9972 4.45289 1.4 16.1477 -60.8069 4.07427
228 23.7472 4.45289 1.4 16.2831 -65.53 12.9663
229 24.4972 4.45289 1.4 16.4516 -50.6575 -40.6935
230 25.2472 4.45289 1.4 16.6522 -65.3409 96.0644
231 25.9972 4.45289 1.4 16.8838 -74.9402 140.241
232 26.7472 4.45289 1.4 17.1451 -75.8034 106.361
233 27.4972 4.45289 1.4 17.4348 -64.39 -142.679
234 28.2472 4.45289 1.4 17.7514 -59.7079 155.342
235 28.9972 4.45289 1.4 18.0936 -65.6059 154.214
236 29.7472 4.45289 1.4 18.4599 -70.5223 89.1594
237 30.4972 4.45289 1.4 18.849 -70.9385 -83.8296
238 -28.0028 5.20289 1.4 50.7745 -250 0
239 -27.2528 5.20289 1.4 50.0594 -250 0
240 -26.5028 5.20289 1.4 49.3453 -250 0
241 -25.7528 5.20289 1.4 48.6323 -250 0
242 -25.0028 5.20289 1.4 47.9204 -250 0
243 -24.2528 5.20289 1.4 47.2097 -250 0
244 -23.5028 5.20289 1.4 46.5002 -250 0
245 -22.7528 5.20289 1.4 45.7921 -250 0
246 -22.0028 5.20289 1.4 45.0852 -250 0
247 -21.2528 5.20289 1.4 44.3798 -250 0
248 -20.5028 5.20289 1.4 43.6759 -174.113 36.6319
249 -19.7528 5.20289 1.4 42.9736 -128.757 62.3684
250 -19.0028 5.20289 1.4 42.2729 -130.716 -156.177
251 -18.2528 5.20289 1.4 41.5738 -130.502 -149.288
252 -17.5028 5.20289 1.4 40.8767 -126.301 99.1133
253 -16.7528 5.20289 1.4 40.1814 -98.0735 96.4575
254 -16.0028 5.20289 1.4 39.4881 -108.765 121.548
255 -15.2528 5.20289 1.4 38.7969 -111.625 -54.1678
256 -14.5028 5.20289 1.4 38.1079 -115.338 -44.2361
257 -13.7528 5.20289 1.4 37.4213 -85.2895 -47.8343
258 -13.0028 5.20289 1.4 36.7372 -90.9635 -79.2585
259 -12.2528 5.20289 1.4 36.0557 -84.7441 104.408
260 -11.5028 5.20289 1.4 35.377 -100.259 71.7275
261 -10.7528 5.20289 1.4 34.7012 -86.946 88.0919
262 -10.0028 5.20289 1.4 34.0285 -94.647 -68.8807
263 -9.25282 5.20289 1.4 33.3591 -94.2079 56.9018
264 -8.50282 5.20289 1.4 32.6932 -95.1892 -135.133
265 -7.75282 5.20289 1.4 32.031 -83.9116 95.0332
266 -7.00282 5.20289 1.4 31.3728 -97.4646 -48.7753
267 -6.25282 5.20289 1.4 30.7188 -101.928 -69.5285
268 -5.50282 5.20289 1.4 30.0692 -96.2769 -139.128
269 -4.75282 5.20289 1.4 29.4245 -98.7683 -173.892
270 -4.00282 5.20289 1.4 28.7848 -116.11 18.5476
271 -3.25282 5.20289 1.4 28.1506 -85.6918 -8.93462
272 -2.50282 5.20289 1.4 27.5222 -84.1843 167.397
273 -1.75282 5.20289 1.4 26.9001 -101.053 9.52092
274 -1.00282 5.20289 1.4 26.2846 -99.3323 125.682
275 -0.25282 5.20289 1.4 25.6763 -95.6951 -121.37
276 0.49718 5.20289 1.4 25.0756 -78.4836 -22.793
277 1.24718 5.20289 1.4 24.4832 -86.5012 -73.3341
278 1.99718 5.20289 1.4 23.8997 -93.3205 -88.1058
279 2.74718 5.20289 1.4 23.3256 -90.1098 124.779
280 3.49718 5.20289 1.4 22.7618 -69.412 -38.1862
281 4.24718 5.20289 1.4 22.2091 -64.6451 147.319
282 4.99718 5.20289 1.4 21.6681 -64.3204 -57.7471
283 5.74718 5.20289 1.4 21.14 -65.2452 66.8322
284 6.49718 5.20289 1.4 20.6256 -68.1511 139.47
285 7.24718 5.20289 1.4 20.126 -70.3832 -141.751
286 7.99718 5.20289 1.4 19.6424 -65.1168 -178.507
287 8.74718 5.20289 1.4 19.1759 -68.851 137.367
288 9.49718 5.20289 1.4 18.7278 -74.8965 -23.6517
289 10.2472 5.20289 1.4 18.2995 -69.5532 69.8172
290 10.9972 5.20289 1.4 17.8924 -71.8097 -9.94478
291 11.7472 5.20289 1.4 17.5079 -60.5981 65.1836
292 12.4972 5.20289 1.4 17.1477 -64.9161 6.70634
293 13.2472 5.20289 1.4 16.8133 -66.677 85.8619
294 13.9972 5.20289 1.4 16.5061 -88.6859 13.8997
295 14.7472 5.20289 1.4 16.2278 -87.0554 160.615
296 15.4972 5.20289 1.4 15.9799 -74.5919 -65.3649
297 16.2472 5.20289 1.4 15.7639 -74.1235 41.6546
298 16.9972 5.20289 1.4 15.5809 -78.5734 172.762
299 17.7472 5.20289 1.4 15.4323 -61.2978 -119.989
300 18.4972 5.20289 1.4 15.319 -57.4509 57.981
301 19.2472 5.20289 1.4 15.2419 -55.2822 115.058
302 19.9972 5.20289 1.4 15.2013 -56.8535 -13.3792
303 20.7472 5.20289 1.4 15.1977 -58.6342 12.8415
304 21.4972 5.20289 1.4 15.2311 -62.4691 -76.8067
305 22.2472 5.20289 1.4 15.3013 -61.9689 104.337
306 22.9972 5.20289 1.4 15.4076 -77.316 126.921
307 23.7472 5.20289 1.4 15.5495 -57.3935 97.4973
308 24.4972 5.20289 1.4 15.7258 -56.2653 3.64587
309 25.2472 5.20289 1.4 15.9356 -59.6085 -172.317
310 25.9972 5.20289 1.4 16.1774 -64.7595 -65.5064
311 26.7472 5.20289 1.4 16.4499 -61.3811 -100.794
312 27.4972 5.20289 1.4 16.7516 -63.7631 38.9254
313 28.2472 5.20289 1.4 17.0809 -63.1196 18.3449
314 28.9972 5.20289 1.4 17.4363 -85.0169 -170.982
315 29.7472 5.20289 1.4 17.8161 -66.8389 122.763
316 30.4972 5.20289 1.4 18.219 -72.5951 46.0306
317 -28.0028 5.95289 1.4 50.5551 -250 0
318 -27.2528 5.95289 1.4 49.8369 -250 0
319 -26.5028 5.95289 1.4 49.1195 -250 0
320 -25.7528 5.95289 1.4 48.4032 -250 0
321 -25.0028 5.95289 1.4 47.6879 -250 0
322 -24.2528 5.95289 1.4 46.9737 -250 0
323 -23.5028 5.95289 1.4 46.2606 -250 0
324 -22.7528 5.95289 1.4 45.5487 -250 0
325 -22.0028 5.95289 1.4 44.838 -250 0
326 -21.2528 5.95289 1.4 44.1287 -250 0
327 -20.5028 5.95289 1.4 43.4207 -146.505 -47.0305
328 -19.7528 5.95289 1.4 42.7141 -120.417 -27.6492
329 -19.0028 5.95289 1.4 42.0091 -121.117 134.915
330 -18.2528 5.95289 1.4 41.3056 -134.24 117.646
331 -17.5028 5.95289 1.4 40.6038 -159.612 20.4635
332 -16.7528 5.95289 1.4 39.9038 -105.325 146.763
333 -16.0028 5.95289 1.4 39.2056 -101.856 137.34
334 -15.2528 5.95289 1.4 38.5093 -99.1713 19.7186
335 -14.5028 5.95289 1.4 37.8152 -110.387 -176.274
336 -13.7528 5.95289 1.4 37.1231 -109.812 2.27969
337 -13.0028 5.95289 1.4 36.4334 -86.6446 -37.8296
338 -12.2528 5.95289 1.4 35.7461 -96.9654 3.37565
339 -11.5028 5.95289 1.4 35.0614 -99.1014 92.4128
340 -10.7528 5.95289 1.4 34.3794 -92.5584 -90.7176
341 -10.0028 5.95289 1.4 33.7003 -88.1058 -10.6009
342 -9.25282 5.95289 1.4 33.0242 -94.142 -110.639
343 -8.50282 5.95289 1.4 32.3514 -95.8218 -18.2261
344 -7.75282 5.95289 1.4 31.6821 -95.8038 91.862
345 -7.00282 5.95289 1.4 31.0165 -85.1347 -26.7412
346 -6.25282 5.95289 1.4 30.3548 -110.301 -74.6234
347 -5.50282 5.95289 1.4 29.6973 -96.5776 94.1138
348 -4.75282 5.95289 1.4 29.0443 -107.016 -33.8518
349 -4.00282 5.95289 1.4 28.3961 -114.339 -16.2252
350 -3.25282 5.95289 1.4 27.753 -79.4623 78.0287
351 -2.50282 5.95289 1.4 27.1154 -84.9703 70.3135
352 -1.75282 5.95289 1.4 26.4837 -84.2788 65.0382
353 -1.00282 5.95289 1.4 25.8583 -92.4062 145.608
354 -0.25282 5.95289 1.4 25.2397 -96.5269 -162.004
355 0.49718 5.95289 1.4 24.6284 -87.1437 -48.1235
356 1.24718 5.95289 1.4 24.025 -83.3398 -142.426
357 1.99718 5.95289 1.4 23.43 -101.552 76.5
358 2.74718 5.95289 1.4 22.8442 -88.1941 -105.843
359 3.49718 5.95289 1.4 22.2682 -94.0078 103.944
360 4.24718 5.95289 1.4 21.7028 -74.8009 20.1136
361 4.99718 5.95289 1.4 21.149 -65.5047 28.9007
362 5.74718 5.95289 1.4 20.6075 -66.8024 -136.998
363 6.49718 5.95289 1.4 20.0795 -62.6103 -8.18872
364 7.24718 5.95289 1.4 19.566 -72.8555 116.271
365 7.99718 5.95289 1.4 19.0681 -66.9887 64.0941
366 8.74718 5.95289 1.4 18.5872 -68.223 56.827
367 9.49718 5.95289 1.4 18.1246 -67.7219 -3.6896
368 10.2472 5.95289 1.4 17.6817 -70.0625 104.139
369 10.9972 5.95289 1.4 17.26 -58.2389 -69.5334
370 11.7472 5.95289 1.4 16.8612 -63.0664 -39.7774
371 12.4972 5.95289 1.4 16.4868 -71.2982 -3.00212
372 13.2472 5.95289 1.4 16.1386 -69.4505 -69.1831
373 13.9972 5.95289 1.4 15.8184 -73.8056 160.485
374 14.7472 5.95289 1.4 15.5278 -87.8704 -76.6626
375 15.4972 5.95289 1.4 15.2686 -106.328 140.991
376 16.2472 5.95289 1.4 15.0423 -98.7149 37.0361
377 16.9972 5.95289 1.4 14.8505 -57.548 -169.827
378 17.7472 5.95289 1.4 14.6945 -64.0078 -64.5866
379 18.4972 5.95289 1.4 14.5754 -56.9031 90.8963
380 19.2472 5.95289 1.4 14.4943 -55.3001 -52.9953
381 19.9972 5.95289 1.4 14.4517 -64.6055 43.096
382 20.7472 5.95289 1.4 14.4479 -66.1495 41.9858
383 21.4972 5.95289 1.4 14.483 -60.0201 -43.7466
384 22.2472 5.95289 1.4 14.5567 -62.6208 -98.1434
385 22.9972 5.95289 1.4 14.6685 -62.1348 -59.0013
386 23.7472 5.95289 1.4 14.8174 -56.167 -165.211
387 24.4972 5.95289 1.4 15.0024 -70.1382 33.9354
388 25.2472 5.95289 1.4 15.2221 -62.3545 158.477
389 25.9972 5.95289 1.4 15.4751 -63.7081 144.917
390 26.7472 5.95289 1.4 15.7598 -65.8284 56.7969
391 27.4972 5.95289 1.4 16.0744 -82.3934 -133.952
392 28.2472 5.95289 1.4 16.4173 -69.5889 -71.541
393 28.9972 5.95289 1.4 16.7867 -66.7831 36.0555
394 29.7472 5.95289 1.4 17.1809 -84.5755 -50.1533
395 30.4972 5.95289 1.4 17.5983 -71.0439 -176.283
396 -28.0028 6.70289 1.4 50.346 -250 0
397 -27.2528 6.70289 1.4 49.6247 -250 0
398 -26.5028 6.70289 1.4 48.9042 -250 0
399 -25.7528 6.70289 1.4 48.1847 -250 0
400 -25.0028 6.70289 1.4 47.4661 -250 0
401 -24.2528 6.70289 1.4 46.7485 -250 0
402 -23.5028 6.70289 1.4 46.0319 -250 0
403 -22.7528 6.70289 1.4 45.3164 -250 0
404 -22.0028 6.70289 1.4 44.6021 -250 0
405 -21.2528 6.70289 1.4 43.8889 -250 0
406 -20.5028 6.70289 1.4 43.177 -137.835 34.9664
407 -19.7528 6.70289 1.4 42.4664 -121.592 87.88
408 -19.0028 6.70289 1.4 41.7572 -131.287 30.5314
409 -18.2528 6.70289 1.4 41.0494 -134.01 -2.92308
410 -17.5028 6.70289 1.4 40.3431 -142.942 -66.0357
411 -16.7528 6.70289 1.4 39.6385 -111.914 -17.4271
412 -16.0028 6.70289 1.4 38.9355 -120.155 127.822
413 -15.2528 6.70289 1.4 38.2343 -113.503 36.238
414 -14.5028 6.70289 1.4 37.5351 -106.56 26.3972
415 -13.7528 6.70289 1.4 36.8378 -86.5487 -30.1051
