#Rx
# X(m), Y(m), Z(m), Distance(m), Power (dBm) Phase (deg)
1 -28.0028 2.95289 1.4 51.4926 -250 0
2 -27.0028 2.95289 1.4 50.5529 -250 0
3 -26.0028 2.95289 1.4 49.6155 -250 0
4 -25.0028 2.95289 1.4 48.6806 -250 0
5 -24.0028 2.95289 1.4 47.7484 -250 0
6 -23.0028 2.95289 1.4 46.8189 -250 0
7 -22.0028 2.95289 1.4 45.8925 -250 0
8 -21.0028 2.95289 1.4 44.9691 -250 0
9 -20.0028 2.95289 1.4 44.0492 -120.67 -129.076
10 -19.0028 2.95289 1.4 43.1327 -108.704 -149.384
11 -18.0028 2.95289 1.4 42.2201 -113.893 142.489
12 -17.0028 2.95289 1.4 41.3115 -104.617 -35.3024
13 -16.0028 2.95289 1.4 40.4073 -96.7575 27.839
14 -15.0028 2.95289 1.4 39.5076 -84.1124 119.902
15 -14.0028 2.95289 1.4 38.6129 -88.8491 111.414
16 -13.0028 2.95289 1.4 37.7235 -90.577 29.8799
17 -12.0028 2.95289 1.4 36.8397 -94.2638 4.75238
18 -11.0028 2.95289 1.4 35.9621 -84.0398 9.67134
19 -10.0028 2.95289 1.4 35.091 -89.2459 35.3604
20 -9.00282 2.95289 1.4 34.2269 -85.9718 -70.6215
21 -8.00282 2.95289 1.4 33.3704 -92.3107 56.8074
22 -7.00282 2.95289 1.4 32.5221 -91.285 -101.621
23 -6.00282 2.95289 1.4 31.6827 -96.4938 -70.9885
24 -5.00282 2.95289 1.4 30.8529 -106.828 -123.138
25 -4.00282 2.95289 1.4 30.0334 -106.451 157.685
26 -3.00282 2.95289 1.4 29.2251 -93.7323 46.9328
27 -2.00282 2.95289 1.4 28.4291 -95.6654 51.2271
28 -1.00282 2.95289 1.4 27.6463 -92.0495 62.189
29 -0.00282 2.95289 1.4 26.8779 -97.4558 170.529
30 0.99718 2.95289 1.4 26.1252 -69.8109 81.0822
31 1.99718 2.95289 1.4 25.3896 -83.1935 -14.5827
32 2.99718 2.95289 1.4 24.6726 -102.7 79.4894
33 3.99718 2.95289 1.4 23.9759 -64.9177 13.6317
34 4.99718 2.95289 1.4 23.3012 -71.2975 -107.921
35 5.99718 2.95289 1.4 22.6507 -66.4043 -58.0472
36 6.99718 2.95289 1.4 22.0263 -71.6483 15.5204
37 7.99718 2.95289 1.4 21.4304 -71.8264 -53.7977
38 8.99718 2.95289 1.4 20.8654 -75.9189 -71.49
39 9.99718 2.95289 1.4 20.334 -83.8523 -152.012
40 10.9972 2.95289 1.4 19.8387 -64.7333 -7.46916
41 11.9972 2.95289 1.4 19.3825 -63.9705 -6.01192
42 12.9972 2.95289 1.4 18.968 -65.6187 82.1681
43 13.9972 2.95289 1.4 18.5981 -67.7933 141.179
44 14.9972 2.95289 1.4 18.2755 -72.5359 -45.8234
45 15.9972 2.95289 1.4 18.0028 -81.6881 -172.272
46 16.9972 2.95289 1.4 17.7821 -73.506 -100.276
47 17.9972 2.95289 1.4 17.6156 -50.3266 104.625
48 18.9972 2.95289 1.4 17.5047 -53.1622 -22.9606
49 19.9972 2.95289 1.4 17.4505 -56.3646 142.868
50 20.9972 2.95289 1.4 17.4535 -60.3573 109.691
51 21.9972 2.95289 1.4 17.5137 -64.7839 -159.259
52 22.9972 2.95289 1.4 17.6305 -66.0982 -27.4607
53 23.9972 2.95289 1.4 17.8028 -55.013 142.404
54 24.9972 2.95289 1.4 18.0289 -61.7731 -179.065
55 25.9972 2.95289 1.4 18.307 -59.762 -162.837
56 26.9972 2.95289 1.4 18.6347 -70.9714 -146.343
57 27.9972 2.95289 1.4 19.0094 -59.3947 -124.894
58 28.9972 2.95289 1.4 19.4284 -67.8566 87.3472
59 29.9972 2.95289 1.4 19.8889 -62.52 -114.528
60 -28.0028 3.95289 1.4 51.1625 -250 0
61 -27.0028 3.95289 1.4 50.2166 -250 0
62 -26.0028 3.95289 1.4 49.2728 -250 0
63 -25.0028 3.95289 1.4 48.3313 -250 0
64 -24.0028 3.95289 1.4 47.3922 -250 0
65 -23.0028 3.95289 1.4 46.4556 -250 0
66 -22.0028 3.95289 1.4 45.5217 -250 0
67 -21.0028 3.95289 1.4 44.5907 -250 0
68 -20.0028 3.95289 1.4 43.6628 -132.908 167.557
69 -19.0028 3.95289 1.4 42.7381 -127.517 -94.9565
70 -18.0028 3.95289 1.4 41.8168 -118.427 -13.5253
71 -17.0028 3.95289 1.4 40.8993 -98.6493 112.425
72 -16.0028 3.95289 1.4 39.9857 -97.6471 90.4787
73 -15.0028 3.95289 1.4 39.0764 -99.7315 89.5883
74 -14.0028 3.95289 1.4 38.1715 -86.1916 -61.1152
75 -13.0028 3.95289 1.4 37.2716 -93.2105 -53.3287
76 -12.0028 3.95289 1.4 36.3769 -87.3795 -136.535
77 -11.0028 3.95289 1.4 35.4878 -82.6313 -123.942
78 -10.0028 3.95289 1.4 34.6047 -86.3391 -152.666
79 -9.00282 3.95289 1.4 33.7282 -109.183 105.784
80 -8.00282 3.95289 1.4 32.8587 -86.3283 130.805
81 -7.00282 3.95289 1.4 31.9969 -94.9265 -25.5862
82 -6.00282 3.95289 1.4 31.1433 -113.483 121.761
83 -5.00282 3.95289 1.4 30.2987 -93.5451 -146.672
84 -4.00282 3.95289 1.4 29.4638 -109.886 -112.119
85 -3.00282 3.95289 1.4 28.6395 -97.163 -77.5159
86 -2.00282 3.95289 1.4 27.8267 -91.6424 -144.47
87 -1.00282 3.95289 1.4 27.0265 -94.2485 145.713
88 -0.00282 3.95289 1.4 26.2399 -102.226 -167.4
89 0.99718 3.95289 1.4 25.4684 -87.5878 160.523
90 1.99718 3.95289 1.4 24.7132 -71.2509 -60.6265
91 2.99718 3.95289 1.4 23.976 -95.2834 -36.0612
92 3.99718 3.95289 1.4 23.2584 -67.4736 -48.0653
93 4.99718 3.95289 1.4 22.5623 -72.0202 -79.2388
94 5.99718 3.95289 1.4 21.8898 -75.7472 16.7616
95 6.99718 3.95289 1.4 21.2431 -62.4608 -177.753
96 7.99718 3.95289 1.4 20.6246 -70.5764 168.355
97 8.99718 3.95289 1.4 20.0369 -80.1505 94.0986
98 9.99718 3.95289 1.4 19.4829 -84.1004 -87.7702
99 10.9972 3.95289 1.4 18.9654 -78.0132 -45.3828
100 11.9972 3.95289 1.4 18.4876 -64.0863 -128.346
101 12.9972 3.95289 1.4 18.0526 -59.3224 -93.9502
102 13.9972 3.95289 1.4 17.6635 -82.612 176.879
103 14.9972 3.95289 1.4 17.3236 -75.279 -124.135
104 15.9972 3.95289 1.4 17.0356 -70.7156 142.885
105 16.9972 3.95289 1.4 16.8022 -69.6405 -37.6834
106 17.9972 3.95289 1.4 16.6259 -56.0377 113.896
107 18.9972 3.95289 1.4 16.5083 -57.2211 -12.6883
108 19.9972 3.95289 1.4 16.4508 -59.543 147.026
109 20.9972 3.95289 1.4 16.454 -60.7053 39.6778
110 21.9972 3.95289 1.4 16.5178 -81.3943 -175.043
111 22.9972 3.95289 1.4 16.6416 -61.4739 68.6226
112 23.9972 3.95289 1.4 16.824 -56.0844 127.367
113 24.9972 3.95289 1.4 17.0632 -59.175 -33.5779
114 25.9972 3.95289 1.4 17.3568 -99.2586 -157.566
115 26.9972 3.95289 1.4 17.7021 -62.8286 8.47172
116 27.9972 3.95289 1.4 18.0961 -61.7637 -53.6986
117 28.9972 3.95289 1.4 18.5357 -61.1616 84.0679
118 29.9972 3.95289 1.4 19.0178 -67.225 -61.8219
119 -28.0028 4.95289 1.4 50.8499 -250 0
120 -27.0028 4.95289 1.4 49.8981 -250 0
121 -26.0028 4.95289 1.4 48.9481 -250 0
122 -25.0028 4.95289 1.4 48.0003 -250 0
123 -24.0028 4.95289 1.4 47.0545 -250 0
124 -23.0028 4.95289 1.4 46.1111 -250 0
125 -22.0028 4.95289 1.4 45.1701 -250 0
126 -21.0028 4.95289 1.4 44.2317 -250 0
127 -20.0028 4.95289 1.4 43.2961 -143.327 -32.1352
128 -19.0028 4.95289 1.4 42.3634 -134.904 -104.865
129 -18.0028 4.95289 1.4 41.4338 -127.559 -111.246
130 -17.0028 4.95289 1.4 40.5076 -90.2786 -135.146
131 -16.0028 4.95289 1.4 39.5849 -96.8989 -143.605
132 -15.0028 4.95289 1.4 38.6662 -110.958 -9.4283
133 -14.0028 4.95289 1.4 37.7515 -105.449 117.348
134 -13.0028 4.95289 1.4 36.8413 -87.9783 -142.083
135 -12.0028 4.95289 1.4 35.9359 -85.3418 118.472
136 -11.0028 4.95289 1.4 35.0356 -90.2816 143.388
137 -10.0028 4.95289 1.4 34.1408 -91.5479 159.361
138 -9.00282 4.95289 1.4 33.2521 -90.4798 86.0322
139 -8.00282 4.95289 1.4 32.3698 -87.6653 150.408
140 -7.00282 4.95289 1.4 31.4946 -84.1439 33.5708
141 -6.00282 4.95289 1.4 30.627 -90.1359 95.3062
142 -5.00282 4.95289 1.4 29.7678 -102.697 -157.093
143 -4.00282 4.95289 1.4 28.9176 -113.34 19.412
144 -3.00282 4.95289 1.4 28.0772 -85.61 14.5743
145 -2.00282 4.95289 1.4 27.2477 -96.0644 -54.0402
146 -1.00282 4.95289 1.4 26.4299 -98.2319 105.922
147 -0.00282 4.95289 1.4 25.6251 -98.7607 -90.3549
148 0.99718 4.95289 1.4 24.8344 -93.6819 -114.38
149 1.99718 4.95289 1.4 24.0594 -94.5564 79.3774
150 2.99718 4.95289 1.4 23.3015 -70.2803 160.85
151 3.99718 4.95289 1.4 22.5624 -62.5849 -165.536
152 4.99718 4.95289 1.4 21.8442 -63.9356 149.6
153 5.99718 4.95289 1.4 21.1488 -64.1994 90.3419
154 6.99718 4.95289 1.4 20.4787 -68.524 -93.7948
155 7.99718 4.95289 1.4 19.8364 -64.8229 10.537
156 8.99718 4.95289 1.4 19.2247 -68.9601 -48.8769
157 9.99718 4.95289 1.4 18.6465 -87.6878 -134.273
158 10.9972 4.95289 1.4 18.1052 -59.7133 -3.59254
159 11.9972 4.95289 1.4 17.604 -62.1446 107.087
160 12.9972 4.95289 1.4 17.1466 -67.244 64.9564
161 13.9972 4.95289 1.4 16.7365 -65.9445 -77.7141
162 14.9972 4.95289 1.4 16.3773 -83.9271 8.59897
163 15.9972 4.95289 1.4 16.0724 -69.7711 78.5269
164 16.9972 4.95289 1.4 15.8248 -77.8494 -10.3122
165 17.9972 4.95289 1.4 15.6375 -53.9305 -65.8993
166 18.9972 4.95289 1.4 15.5124 -56.7763 -21.809
167 19.9972 4.95289 1.4 15.4512 -54.7435 -44.6995
168 20.9972 4.95289 1.4 15.4546 -58.1153 0.97754
169 21.9972 4.95289 1.4 15.5226 -60.273 -58.1826
170 22.9972 4.95289 1.4 15.6542 -65.2595 -52.3168
171 23.9972 4.95289 1.4 15.848 -54.7396 160.35
172 24.9972 4.95289 1.4 16.1017 -65.6106 178.148
173 25.9972 4.95289 1.4 16.4125 -76.8933 52.6649
174 26.9972 4.95289 1.4 16.7772 -61.37 -75.3921
175 27.9972 4.95289 1.4 17.1924 -59.9993 -56.3839
176 28.9972 4.95289 1.4 17.6545 -63.8616 149.021
177 29.9972 4.95289 1.4 18.1601 -66.3987 173.994
178 -28.0028 5.95289 1.4 50.5551 -250 0
179 -27.0028 5.95289 1.4 49.5976 -250 0
180 -26.0028 5.95289 1.4 48.6419 -250 0
181 -25.0028 5.95289 1.4 47.6879 -250 0
182 -24.0028 5.95289 1.4 46.7359 -250 0
183 -23.0028 5.95289 1.4 45.7859 -250 0
184 -22.0028 5.95289 1.4 44.838 -250 0
185 -21.0028 5.95289 1.4 43.8925 -250 0
186 -20.0028 5.95289 1.4 42.9495 -128.182 -156.995
187 -19.0028 5.95289 1.4 42.0091 -121.161 135.554
188 -18.0028 5.95289 1.4 41.0715 -147.645 38.208
189 -17.0028 5.95289 1.4 40.1369 -97.2817 -21.8446
190 -16.0028 5.95289 1.4 39.2056 -102.042 142.912
191 -15.0028 5.95289 1.4 38.2777 -98.3417 -26.2649
192 -14.0028 5.95289 1.4 37.3536 -105.362 81.1477
193 -13.0028 5.95289 1.4 36.4334 -87.8014 -55.4361
194 -12.0028 5.95289 1.4 35.5176 -79.3663 19.3854
195 -11.0028 5.95289 1.4 34.6064 -86.7858 -1.53588
196 -10.0028 5.95289 1.4 33.7003 -87.7048 -9.17793
197 -9.00282 5.95289 1.4 32.7996 -92.4597 -16.659
198 -8.00282 5.95289 1.4 31.9048 -92.9266 -86.6113
199 -7.00282 5.95289 1.4 31.0165 -84.7106 -25.2117
200 -6.00282 5.95289 1.4 30.1351 -83.0924 -115.003
201 -5.00282 5.95289 1.4 29.2614 -91.4476 -78.6536
202 -4.00282 5.95289 1.4 28.3961 -123.085 -18.4535
203 -3.00282 5.95289 1.4 27.5398 -84.6114 -106.811
204 -2.00282 5.95289 1.4 26.6935 -86.8299 -94.477
205 -1.00282 5.95289 1.4 25.8583 -91.5813 147.94
206 -0.00282 5.95289 1.4 25.0351 -100.954 -34.4143
207 0.99718 5.95289 1.4 24.2252 -85.6368 55.4627
208 1.99718 5.95289 1.4 23.43 -103.643 9.58373
209 2.99718 5.95289 1.4 22.651 -87.0228 20.4191
210 3.99718 5.95289 1.4 21.89 -67.0343 15.1508
211 4.99718 5.95289 1.4 21.149 -65.3292 27.5175
212 5.99718 5.95289 1.4 20.43 -69.7597 -8.4375
213 6.99718 5.95289 1.4 19.7355 -60.425 -56.5425
214 7.99718 5.95289 1.4 19.0681 -66.7826 65.8364
215 8.99718 5.95289 1.4 18.4309 -65.0024 -162.551
216 9.99718 5.95289 1.4 17.827 -70.3025 134.434
217 10.9972 5.95289 1.4 17.26 -57.0364 -69.1298
218 11.9972 5.95289 1.4 16.7336 -61.9653 164.082
219 12.9972 5.95289 1.4 16.2517 -62.5448 57.65
220 13.9972 5.95289 1.4 15.8184 -73.3377 160.639
221 14.9972 5.95289 1.4 15.4378 -72.1573 -113.075
222 15.9972 5.95289 1.4 15.1139 -88.5204 146.476
223 16.9972 5.95289 1.4 14.8505 -62.5142 -153.597
224 17.9972 5.95289 1.4 14.6506 -58.7324 -86.7193
225 18.9972 5.95289 1.4 14.5171 -62.8421 64.5923
226 19.9972 5.95289 1.4 14.4517 -61.4289 15.4592
227 20.9972 5.95289 1.4 14.4553 -59.1362 40.42
228 21.9972 5.95289 1.4 14.5279 -57.0833 -117.001
229 22.9972 5.95289 1.4 14.6685 -62.3607 -56.2497
230 23.9972 5.95289 1.4 14.8751 -62.1381 92.0942
231 24.9972 5.95289 1.4 15.1451 -60.3616 -95.6966
232 25.9972 5.95289 1.4 15.4751 -63.8735 138.746
233 26.9972 5.95289 1.4 15.8614 -56.5682 11.5256
234 27.9972 5.95289 1.4 16.3 -68.0145 21.4042
235 28.9972 5.95289 1.4 16.7867 -66.2146 27.5098
236 29.9972 5.95289 1.4 17.3176 -68.4758 23.0582
237 -28.0028 6.95289 1.4 50.2785 -250 0
238 -27.0028 6.95289 1.4 49.3157 -250 0
239 -26.0028 6.95289 1.4 48.3543 -250 0
240 -25.0028 6.95289 1.4 47.3946 -250 0
241 -24.0028 6.95289 1.4 46.4365 -250 0
242 -23.0028 6.95289 1.4 45.4803 -250 0
243 -22.0028 6.95289 1.4 44.526 -250 0
244 -21.0028 6.95289 1.4 43.5737 -250 0
245 -20.0028 6.95289 1.4 42.6236 -125.943 -109.714
246 -19.0028 6.95289 1.4 41.6758 -121.653 -97.5336
247 -18.0028 6.95289 1.4 40.7306 -122.827 -106.434
248 -17.0028 6.95289 1.4 39.788 -105.489 -63.6723
249 -16.0028 6.95289 1.4 38.8483 -117.957 -93.141
250 -15.0028 6.95289 1.4 37.9117 -99.5509 28.7144
251 -14.0028 6.95289 1.4 36.9784 -104.236 -105.926
252 -13.0028 6.95289 1.4 36.0486 -85.2266 -148.382
253 -12.0028 6.95289 1.4 35.1228 -76.3356 154.582
254 -11.0028 6.95289 1.4 34.2011 -77.8075 -168.731
255 -10.0028 6.95289 1.4 33.2839 -89.9407 -131.087
256 -9.00282 6.95289 1.4 32.3716 -87.3288 -175.919
257 -8.00282 6.95289 1.4 31.4647 -92.999 178.92
258 -7.00282 6.95289 1.4 30.5636 -90.3106 115.086
259 -6.00282 6.95289 1.4 29.6688 -86.5177 -149.614
260 -5.00282 6.95289 1.4 28.7809 -86.2231 89.6498
261 -4.00282 6.95289 1.4 27.9007 -97.7829 156.388
262 -3.00282 6.95289 1.4 27.0287 -89.5036 -116.033
263 -2.00282 6.95289 1.4 26.1659 -84.4477 99.267
264 -1.00282 6.95289 1.4 25.3133 -83.8676 161.06
265 -0.00282 6.95289 1.4 24.4717 -94.063 -91.1487
266 0.99718 6.95289 1.4 23.6426 -81.8065 64.1433
267 1.99718 6.95289 1.4 22.8271 -78.7981 -65.9384
268 2.99718 6.95289 1.4 22.0268 -89.927 -85.8103
269 3.99718 6.95289 1.4 21.2435 -67.1265 105.21
270 4.99718 6.95289 1.4 20.479 -67.2122 -161.372
271 5.99718 6.95289 1.4 19.7356 -64.338 -124.7
272 6.99718 6.95289 1.4 19.0158 -69.7158 -158.825
273 7.99718 6.95289 1.4 18.3222 -64.1289 150.983
274 8.99718 6.95289 1.4 17.6581 -63.3489 -91.3625
275 9.99718 6.95289 1.4 17.0268 -66.3865 3.01898
276 10.9972 6.95289 1.4 16.4322 -67.2316 42.7862
277 11.9972 6.95289 1.4 15.8784 -66.8163 -158.979
278 12.9972 6.95289 1.4 15.3697 -68.8488 -94.1247
279 13.9972 6.95289 1.4 14.9108 -62.0113 -133.802
280 14.9972 6.95289 1.4 14.5065 -66.4063 -167.255
281 15.9972 6.95289 1.4 14.1613 -69.6155 -100.525
282 16.9972 6.95289 1.4 13.8797 -64.7736 -130.279
283 17.9972 6.95289 1.4 13.6657 -58.492 68.8109
284 18.9972 6.95289 1.4 13.5224 -51.313 84.5976
285 19.9972 6.95289 1.4 13.4522 -55.793 -171.548
286 20.9972 6.95289 1.4 13.4561 -55.9391 165.617
287 21.9972 6.95289 1.4 13.5341 -67.1333 20.1861
288 22.9972 6.95289 1.4 13.6849 -54.7405 -85.0302
289 23.9972 6.95289 1.4 13.9061 -64.2314 -127.643
290 24.9972 6.95289 1.4 14.1945 -62.6041 -6.97984
291 25.9972 6.95289 1.4 14.5461 -57.0699 -139.381
292 26.9972 6.95289 1.4 14.9564 -68.9498 21.3098
293 27.9972 6.95289 1.4 15.4207 -78.0639 -91.0848
294 28.9972 6.95289 1.4 15.9344 -80.3395 68.1938
295 29.9972 6.95289 1.4 16.4927 -68.0048 -102.604
296 -28.0028 7.95289 1.4 50.0204 -250 0
297 -27.0028 7.95289 1.4 49.0525 -250 0
298 -26.0028 7.95289 1.4 48.0859 -250 0
299 -25.0028 7.95289 1.4 47.1207 -250 0
300 -24.0028 7.95289 1.4 46.1569 -250 0
301 -23.0028 7.95289 1.4 45.1948 -250 0
302 -22.0028 7.95289 1.4 44.2343 -250 0
303 -21.0028 7.95289 1.4 43.2756 -250 0
304 -20.0028 7.95289 1.4 42.3188 -144.833 9.75248
305 -19.0028 7.95289 1.4 41.3641 -171.692 168.127
306 -18.0028 7.95289 1.4 40.4115 -149.457 -155.378
307 -17.0028 7.95289 1.4 39.4613 -120.826 -74.4222
308 -16.0028 7.95289 1.4 38.5136 -109.506 90.8507
309 -15.0028 7.95289 1.4 37.5687 -108.912 128.976
310 -14.0028 7.95289 1.4 36.6266 -114.24 -137.411
311 -13.0028 7.95289 1.4 35.6877 -93.2188 -31.7079
312 -12.0028 7.95289 1.4 34.7522 -89.3624 -44.5613
313 -11.0028 7.95289 1.4 33.8205 -85.4027 -95.2473
314 -10.0028 7.95289 1.4 32.8927 -89.9014 39.0778
315 -9.00282 7.95289 1.4 31.9693 -90.2966 -107.375
316 -8.00282 7.95289 1.4 31.0506 -83.9353 57.6814
317 -7.00282 7.95289 1.4 30.1371 -91.9493 24.9213
318 -6.00282 7.95289 1.4 29.2292 -90.7199 -3.11216
319 -5.00282 7.95289 1.4 28.3276 -86.5637 74.7357
320 -4.00282 7.95289 1.4 27.4328 -90.6134 -36.8636
321 -3.00282 7.95289 1.4 26.5455 -88.7568 -172.082
322 -2.00282 7.95289 1.4 25.6664 -90.7992 58.0098
323 -1.00282 7.95289 1.4 24.7966 -80.1531 -10.5073
324 -0.00282 7.95289 1.4 23.9369 -81.8865 1.34039
325 0.99718 7.95289 1.4 23.0885 -95.6641 177.787
326 1.99718 7.95289 1.4 22.2528 -79.1681 -84.1947
327 2.99718 7.95289 1.4 21.4311 -76.3412 142.008
328 3.99718 7.95289 1.4 20.6251 -70.5406 147.549
329 4.99718 7.95289 1.4 19.8368 -71.978 -72.5227
330 5.99718 7.95289 1.4 19.0684 -65.4658 40.244
331 6.99718 7.95289 1.4 18.3224 -64.4592 97.666
332 7.99718 7.95289 1.4 17.6015 -66.6939 101.931
333 8.99718 7.95289 1.4 16.9091 -75.5473 13.8341
334 9.99718 7.95289 1.4 16.2488 -64.4616 138.226
335 10.9972 7.95289 1.4 15.6246 -63.7138 91.4395
336 11.9972 7.95289 1.4 15.0411 -65.3971 62.3855
337 12.9972 7.95289 1.4 14.503 -73.4484 170.561
338 13.9972 7.95289 1.4 14.0158 -66.9516 -11.7323
339 14.9972 7.95289 1.4 13.5848 -60.311 64.6504
340 15.9972 7.95289 1.4 13.2156 -81.8673 122.433
341 16.9972 7.95289 1.4 12.9135 -76.9623 -141.115
342 17.9972 7.95289 1.4 12.6831 -56.0288 19.6346
343 18.9972 7.95289 1.4 12.5286 -60.5869 85.419
344 19.9972 7.95289 1.4 12.4528 -50.2433 -152.5
345 20.9972 7.95289 1.4 12.457 -57.0047 128.26
346 21.9972 7.95289 1.4 12.5412 -54.4112 27.6513
347 22.9972 7.95289 1.4 12.7038 -67.5146 -144.23
348 23.9972 7.95289 1.4 12.9418 -61.0298 31.8789
349 24.9972 7.95289 1.4 13.2512 -60.8678 74.0893
350 25.9972 7.95289 1.4 13.6272 -61.8953 -124.846
351 26.9972 7.95289 1.4 14.0643 -70.5293 136.182
352 27.9972 7.95289 1.4 14.5571 -57.9671 -70.3788
353 28.9972 7.95289 1.4 15.1002 -76.223 -151.613
354 29.9972 7.95289 1.4 15.6882 -67.4468 -34.3618
355 -28.0028 8.95289 1.4 49.7811 -131.513 -80.4988
356 -27.0028 8.95289 1.4 48.8084 -128.671 101.286
357 -26.0028 8.95289 1.4 47.8368 -137.495 149.712
358 -25.0028 8.95289 1.4 46.8665 -132.703 -173.229
359 -24.0028 8.95289 1.4 45.8974 -250 0
360 -23.0028 8.95289 1.4 44.9297 -250 0
361 -22.0028 8.95289 1.4 43.9634 -250 0
362 -21.0028 8.95289 1.4 42.9987 -250 0
363 -20.0028 8.95289 1.4 42.0356 -250 0
364 -19.0028 8.95289 1.4 41.0743 -250 0
365 -18.0028 8.95289 1.4 40.1148 -250 0
366 -17.0028 8.95289 1.4 39.1574 -117.541 160.89
367 -16.0028 8.95289 1.4 38.2022 -117.844 71.9521
368 -15.0028 8.95289 1.4 37.2494 -112.195 -132.656
369 -14.0028 8.95289 1.4 36.299 -121.566 -149.433
370 -13.0028 8.95289 1.4 35.3514 -104.431 -101.128
371 -12.0028 8.95289 1.4 34.4068 -94.7008 174.873
372 -11.0028 8.95289 1.4 33.4654 -94.22 168.325
373 -10.0028 8.95289 1.4 32.5275 -97.7893 62.4945
374 -9.00282 8.95289 1.4 31.5934 -84.3294 -66.7735
375 -8.00282 8.95289 1.4 30.6635 -83.7432 -26.753
376 -7.00282 8.95289 1.4 29.7381 -86.0343 -104.141
377 -6.00282 8.95289 1.4 28.8177 -106.55 -170.759
378 -5.00282 8.95289 1.4 27.9027 -94.8259 -137.363
379 -4.00282 8.95289 1.4 26.9938 -86.0477 -54.2033
380 -3.00282 8.95289 1.4 26.0916 -84.1644 -104.841
381 -2.00282 8.95289 1.4 25.1968 -91.3108 -163.433
382 -1.00282 8.95289 1.4 24.3101 -95.7948 -88.7716
383 -0.00282 8.95289 1.4 23.4326 -76.8515 -174.241
384 0.99718 8.95289 1.4 22.5653 -81.8824 -83.5921
385 1.99718 8.95289 1.4 21.7094 -82.7955 121.877
386 2.99718 8.95289 1.4 20.8663 -74.7196 155.939
387 3.99718 8.95289 1.4 20.0376 -69.4073 -16.849
388 4.99718 8.95289 1.4 19.2253 -67.3121 -80.8005
389 5.99718 8.95289 1.4 18.4314 -71.1272 82.5948
390 6.99718 8.95289 1.4 17.6584 -69.6143 -121.564
391 7.99718 8.95289 1.4 16.9093 -65.1837 -36.9254
392 8.99718 8.95289 1.4 16.1873 -69.2877 -52.9755
393 9.99718 8.95289 1.4 15.4963 -67.3526 -101.668
394 10.9972 8.95289 1.4 14.8405 -60.8699 -84.3483
395 11.9972 8.95289 1.4 14.2248 -65.9136 -114.047
396 12.9972 8.95289 1.4 13.6546 -74.0627 179.652
397 13.9972 8.95289 1.4 13.136 -58.3521 -82.7428
398 14.9972 8.95289 1.4 12.6751 -53.0086 -71.2623
399 15.9972 8.95289 1.4 12.2786 -65.4614 126.752
400 16.9972 8.95289 1.4 11.9527 -55.9041 148.928
401 17.9972 8.95289 1.4 11.7035 -61.248 22.1395
402 18.9972 8.95289 1.4 11.5359 -55.8489 88.0964
403 19.9972 8.95289 1.4 11.4535 -52.2172 -137.184
404 20.9972 8.95289 1.4 11.4581 -55.9035 175.594
405 21.9972 8.95289 1.4 11.5495 -57.938 7.18952
406 22.9972 8.95289 1.4 11.7259 -58.8703 -143.792
407 23.9972 8.95289 1.4 11.9834 -66.9792 107.603
408 24.9972 8.95289 1.4 12.3169 -62.9462 128.466
409 25.9972 8.95289 1.4 12.7205 -66.7953 -149.996
410 26.9972 8.95289 1.4 13.1877 -73.3244 35.8707
411 27.9972 8.95289 1.4 13.7121 -70.9661 134.126
412 28.9972 8.95289 1.4 14.2872 -57.194 114.273
413 29.9972 8.95289 1.4 14.9074 -74.4799 160.635
414 -28.0028 9.95289 1.4 49.5607 -111.823 -37.9373
