#Rx
# X(m), Y(m), Z(m), Distance(m), Power (dBm) Phase (deg)
1 -28.0028 2.95289 1.4 33.5641 -250 0
2 -27.0028 2.95289 1.4 32.5641 -250 0
3 -26.0028 2.95289 1.4 31.5641 -250 0
4 -25.0028 2.95289 1.4 30.5641 -250 0
5 -24.0028 2.95289 1.4 29.5641 -250 0
6 -23.0028 2.95289 1.4 28.5641 -250 0
7 -22.0028 2.95289 1.4 27.5641 -250 0
8 -21.0028 2.95289 1.4 26.5641 -250 0
9 -20.0028 2.95289 1.4 25.5641 -73.1472 -37.3101
10 -19.0028 2.95289 1.4 24.5642 -64.7577 -12.0047
11 -18.0028 2.95289 1.4 23.5642 -71.9177 3.66817
12 -17.0028 2.95289 1.4 22.5642 -61.983 -107.949
13 -16.0028 2.95289 1.4 21.5642 -66.0874 -7.64745
14 -15.0028 2.95289 1.4 20.5642 -61.1926 -32.7679
15 -14.0028 2.95289 1.4 19.5642 -62.5178 86.8467
16 -13.0028 2.95289 1.4 18.5643 -60.534 -172.665
17 -12.0028 2.95289 1.4 17.5643 -59.0807 -126.057
18 -11.0028 2.95289 1.4 16.5643 -68.562 -83.4297
19 -10.0028 2.95289 1.4 15.5643 -75.013 -27.1936
20 -9.00282 2.95289 1.4 14.5644 -61.9148 85.6405
21 -8.00282 2.95289 1.4 13.5644 -63.8834 123.889
22 -7.00282 2.95289 1.4 12.5645 -58.7657 -153.185
23 -6.00282 2.95289 1.4 11.5645 -60.889 -102.616
24 -5.00282 2.95289 1.4 10.5646 -64.0156 -68.4656
25 -4.00282 2.95289 1.4 9.56465 -64.19 67.9306
26 -3.00282 2.95289 1.4 8.56474 -60.6823 -148.07
27 -2.00282 2.95289 1.4 7.56486 -55.7719 -133.604
28 -1.00282 2.95289 1.4 6.56502 -63.4744 -52.2376
29 -0.00282 2.95289 1.4 5.56523 -50.9907 8.75107
30 0.99718 2.95289 1.4 4.56553 -47.6171 158.13
31 1.99718 2.95289 1.4 3.566 -43.634 -161.286
32 2.99718 2.95289 1.4 2.56683 -44.2198 -88.413
33 3.99718 2.95289 1.4 1.56874 -46.2973 72.1945
34 4.99718 2.95289 1.4 0.577276 -30.3414 100.822
35 5.99718 2.95289 1.4 0.453377 -27.6544 100.976
36 6.99718 2.95289 1.4 1.44148 -35.258 35.7792
37 7.99718 2.95289 1.4 2.43929 -46.1824 -61.8751
38 8.99718 2.95289 1.4 3.43838 -40.7907 -89.6818
39 9.99718 2.95289 1.4 4.43788 -52.5512 -172.848
40 10.9972 2.95289 1.4 5.43756 -52.6292 49.0916
41 11.9972 2.95289 1.4 6.43734 -47.5494 25.8395
42 12.9972 2.95289 1.4 7.43718 -58.5016 12.4747
43 13.9972 2.95289 1.4 8.43706 -58.0497 174.72
44 14.9972 2.95289 1.4 9.43696 -52.4199 97.2716
45 15.9972 2.95289 1.4 10.4369 -57.1515 118.734
46 16.9972 2.95289 1.4 11.4368 -67.5016 57.2067
47 17.9972 2.95289 1.4 12.4368 -65.5376 -128.027
48 18.9972 2.95289 1.4 13.4367 -71.518 -131.071
49 19.9972 2.95289 1.4 14.4367 -59.5102 174.717
50 20.9972 2.95289 1.4 15.4366 -70.1708 128.448
51 21.9972 2.95289 1.4 16.4366 -57.7054 16.7831
52 22.9972 2.95289 1.4 17.4366 -58.6802 3.77969
53 23.9972 2.95289 1.4 18.4366 -60.9923 -168.422
54 24.9972 2.95289 1.4 19.4365 -64.184 31.2663
55 25.9972 2.95289 1.4 20.4365 -58.2457 -34.4812
56 26.9972 2.95289 1.4 21.4365 -65.9844 -54.8143
57 27.9972 2.95289 1.4 22.4365 -72.1252 106.708
58 28.9972 2.95289 1.4 23.4365 -73.1441 -23.0014
59 29.9972 2.95289 1.4 24.4365 -70.1297 -69.9242
60 -28.0028 3.95289 1.4 33.5827 -250 0
61 -27.0028 3.95289 1.4 32.5832 -250 0
62 -26.0028 3.95289 1.4 31.5838 -250 0
63 -25.0028 3.95289 1.4 30.5845 -250 0
64 -24.0028 3.95289 1.4 29.5852 -250 0
65 -23.0028 3.95289 1.4 28.5859 -250 0
66 -22.0028 3.95289 1.4 27.5867 -250 0
67 -21.0028 3.95289 1.4 26.5876 -250 0
68 -20.0028 3.95289 1.4 25.5885 -93.1229 -79.3452
69 -19.0028 3.95289 1.4 24.5895 -80.4318 -92.4713
70 -18.0028 3.95289 1.4 23.5906 -84.8688 41.8916
71 -17.0028 3.95289 1.4 22.5918 -62.2433 83.587
72 -16.0028 3.95289 1.4 21.5931 -67.6054 100.099
73 -15.0028 3.95289 1.4 20.5945 -66.4316 -129.232
74 -14.0028 3.95289 1.4 19.5961 -64.4263 -152.468
75 -13.0028 3.95289 1.4 18.5978 -65.8195 -38.9701
76 -12.0028 3.95289 1.4 17.5998 -59.0805 40.9098
77 -11.0028 3.95289 1.4 16.6019 -59.6444 87.6029
78 -10.0028 3.95289 1.4 15.6044 -64.183 164.19
79 -9.00282 3.95289 1.4 14.6071 -66.8756 -99.9166
80 -8.00282 3.95289 1.4 13.6103 -55.6115 -47.3763
81 -7.00282 3.95289 1.4 12.614 -56.2897 16.2034
82 -6.00282 3.95289 1.4 11.6183 -56.0026 65.7897
83 -5.00282 3.95289 1.4 10.6235 -56.1271 122.317
84 -4.00282 3.95289 1.4 9.62965 -52.9028 -172.589
85 -3.00282 3.95289 1.4 8.63727 -53.9765 -24.6214
86 -2.00282 3.95289 1.4 7.64687 -51.8215 2.46514
87 -1.00282 3.95289 1.4 6.65935 -60.9192 61.7983
88 -0.00282 3.95289 1.4 5.6762 -52.3849 125.372
89 0.99718 3.95289 1.4 4.70017 -52.6203 78.8627
90 1.99718 3.95289 1.4 3.73683 -46.4271 4.8288
91 2.99718 3.95289 1.4 2.79932 -42.8291 -17.6852
92 3.99718 3.95289 1.4 1.92575 -44.6767 59.0215
93 4.99718 3.95289 1.4 1.2573 -40.6684 -112.69
94 5.99718 3.95289 1.4 1.20545 -36.6146 36.9326
95 6.99718 3.95289 1.4 1.82357 -40.2971 13.7985
96 7.99718 3.95289 1.4 2.68286 -45.4166 -16.6313
97 8.99718 3.95289 1.4 3.61525 -50.8074 163.231
98 9.99718 3.95289 1.4 4.57628 -48.4347 47.7223
99 10.9972 3.95289 1.4 5.55109 -45.7117 146.826
100 11.9972 3.95289 1.4 6.53352 -45.4909 147.345
101 12.9972 3.95289 1.4 7.52059 -59.4838 111.702
102 13.9972 3.95289 1.4 8.51067 -51.836 -33.6936
103 14.9972 3.95289 1.4 9.50283 -52.9598 -140.889
104 15.9972 3.95289 1.4 10.4965 -46.7899 -172.658
105 16.9972 3.95289 1.4 11.4912 -53.4483 140.119
106 17.9972 3.95289 1.4 12.4868 -60.9416 14.8647
107 18.9972 3.95289 1.4 13.4831 -52.3686 -40.1514
108 19.9972 3.95289 1.4 14.4798 -58.2337 -72.5884
109 20.9972 3.95289 1.4 15.477 -55.9728 -174.964
110 21.9972 3.95289 1.4 16.4745 -51.2829 141.457
111 22.9972 3.95289 1.4 17.4723 -64.7791 46.2854
112 23.9972 3.95289 1.4 18.4704 -60.5467 28.5797
113 24.9972 3.95289 1.4 19.4686 -62.3383 39.6915
114 25.9972 3.95289 1.4 20.467 -63.4899 -36.9114
115 26.9972 3.95289 1.4 21.4656 -69.3986 -110.138
116 27.9972 3.95289 1.4 22.4643 -70.8163 173.732
117 28.9972 3.95289 1.4 23.4631 -68.2134 123.817
118 29.9972 3.95289 1.4 24.462 -69.602 4.89878
119 -28.0028 4.95289 1.4 33.631 -250 0
120 -27.0028 4.95289 1.4 32.633 -250 0
121 -26.0028 4.95289 1.4 31.6352 -250 0
122 -25.0028 4.95289 1.4 30.6375 -118.14 -135.069
123 -24.0028 4.95289 1.4 29.64 -250 0
124 -23.0028 4.95289 1.4 28.6427 -250 0
125 -22.0028 4.95289 1.4 27.6455 -250 0
126 -21.0028 4.95289 1.4 26.6486 -250 0
127 -20.0028 4.95289 1.4 25.6519 -80.7828 157.787
128 -19.0028 4.95289 1.4 24.6555 -98.1416 164.524
129 -18.0028 4.95289 1.4 23.6594 -87.6672 175.036
130 -17.0028 4.95289 1.4 22.6636 -67.269 -169.282
131 -16.0028 4.95289 1.4 21.6682 -60.9314 -149.522
132 -15.0028 4.95289 1.4 20.6732 -67.8697 -83.8341
133 -14.0028 4.95289 1.4 19.6788 -60.2699 27.6872
134 -13.0028 4.95289 1.4 18.6849 -75.0369 40.2424
135 -12.0028 4.95289 1.4 17.6918 -55.291 133.619
136 -11.0028 4.95289 1.4 16.6994 -58.9995 -153.262
137 -10.0028 4.95289 1.4 15.7081 -58.2578 -50.4478
138 -9.00282 4.95289 1.4 14.7179 -56.451 -32.7938
139 -8.00282 4.95289 1.4 13.7291 -61.3763 -22.2525
140 -7.00282 4.95289 1.4 12.7421 -59.8838 118.471
141 -6.00282 4.95289 1.4 11.7573 -56.6534 172.059
142 -5.00282 4.95289 1.4 10.7752 -57.4907 -149.176
143 -4.00282 4.95289 1.4 9.79682 -60.8839 -104.262
144 -3.00282 4.95289 1.4 8.82326 -56.3454 119.534
145 -2.00282 4.95289 1.4 7.85635 -49.6931 91.7028
146 -1.00282 4.95289 1.4 6.89888 -52.6274 46.0048
147 -0.00282 4.95289 1.4 5.95541 -55.6203 -7.70378
148 0.99718 4.95289 1.4 5.0338 -53.3874 -125.32
149 1.99718 4.95289 1.4 4.14867 -48.5207 -29.3185
150 2.99718 4.95289 1.4 3.32923 -47.2273 -74.1767
151 3.99718 4.95289 1.4 2.63744 -42.0395 114.435
152 4.99718 4.95289 1.4 2.19736 -42.8494 -22.9569
153 5.99718 4.95289 1.4 2.16811 -41.8576 87.692
154 6.99718 4.95289 1.4 2.56378 -41.6422 -17.0066
155 7.99718 4.95289 1.4 3.23192 -52.3636 125.521
156 8.99718 4.95289 1.4 4.0395 -44.1675 -24.8218
157 9.99718 4.95289 1.4 4.91832 -49.0037 163.672
158 10.9972 4.95289 1.4 5.83628 -49.6847 54.5727
159 11.9972 4.95289 1.4 6.7775 -52.6561 95.599
160 12.9972 4.95289 1.4 7.73349 -48.993 102.705
161 13.9972 4.95289 1.4 8.69937 -50.2893 149.916
162 14.9972 4.95289 1.4 9.6722 -49.362 -99.1121
163 15.9972 4.95289 1.4 10.6501 -47.6938 -117.58
164 16.9972 4.95289 1.4 11.6317 -65.002 -90.1972
165 17.9972 4.95289 1.4 12.6162 -54.152 76.0561
166 18.9972 4.95289 1.4 13.603 -54.3543 53.8023
167 19.9972 4.95289 1.4 14.5915 -58.118 -51.9125
168 20.9972 4.95289 1.4 15.5816 -52.7879 -85.4755
169 21.9972 4.95289 1.4 16.5728 -61.5134 -121.186
170 22.9972 4.95289 1.4 17.565 -55.0242 94.6255
171 23.9972 4.95289 1.4 18.5581 -53.8158 97.7703
172 24.9972 4.95289 1.4 19.5518 -81.9384 -55.6234
173 25.9972 4.95289 1.4 20.5462 -82.7257 -31.8059
174 26.9972 4.95289 1.4 21.5411 -88.4965 -125.412
175 27.9972 4.95289 1.4 22.5364 -87.4186 102.462
176 28.9972 4.95289 1.4 23.5322 -88.865 151.127
177 29.9972 4.95289 1.4 24.5283 -75.5517 -14.4794
178 -28.0028 5.95289 1.4 33.7089 -250 0
179 -27.0028 5.95289 1.4 32.7133 -117.66 -12.2999
180 -26.0028 5.95289 1.4 31.718 -117.905 -91.7595
181 -25.0028 5.95289 1.4 30.7231 -117.469 -163.872
182 -24.0028 5.95289 1.4 29.7284 -250 0
183 -23.0028 5.95289 1.4 28.7342 -250 0
184 -22.0028 5.95289 1.4 27.7403 -250 0
185 -21.0028 5.95289 1.4 26.7469 -250 0
186 -20.0028 5.95289 1.4 25.754 -96.9538 -133.277
187 -19.0028 5.95289 1.4 24.7617 -86.2565 107.323
188 -18.0028 5.95289 1.4 23.77 -75.7448 80.4366
189 -17.0028 5.95289 1.4 22.7791 -67.4871 -113.436
190 -16.0028 5.95289 1.4 21.7889 -57.4756 -49.8908
191 -15.0028 5.95289 1.4 20.7998 -54.4647 -40.1454
192 -14.0028 5.95289 1.4 19.8117 -65.0325 -90.4317
193 -13.0028 5.95289 1.4 18.8248 -60.333 -142.962
194 -12.0028 5.95289 1.4 17.8395 -55.5276 -168.609
195 -11.0028 5.95289 1.4 16.8558 -54.4859 -93.7899
196 -10.0028 5.95289 1.4 15.8742 -54.6833 36.6923
197 -9.00282 5.95289 1.4 14.8951 -58.2768 59.6658
198 -8.00282 5.95289 1.4 13.9189 -59.8903 113.993
199 -7.00282 5.95289 1.4 12.9464 -55.3299 173.861
200 -6.00282 5.95289 1.4 11.9783 -54.6425 167.589
201 -5.00282 5.95289 1.4 11.016 -59.249 108.658
202 -4.00282 5.95289 1.4 10.0611 -55.4942 26.1844
203 -3.00282 5.95289 1.4 9.11578 -53.3378 17.4318
204 -2.00282 5.95289 1.4 8.18351 -67.4225 67.2071
205 -1.00282 5.95289 1.4 7.26926 -49.6558 91.7373
206 -0.00282 5.95289 1.4 6.38079 -51.8831 -169.477
207 0.99718 5.95289 1.4 5.53053 -60.2953 -61.9739
208 1.99718 5.95289 1.4 4.7391 -50.16 71.2269
209 2.99718 5.95289 1.4 4.04121 -51.236 23.429
210 3.99718 5.95289 1.4 3.49337 -42.0678 90.2368
211 4.99718 5.95289 1.4 3.17426 -42.3092 -9.63504
212 5.99718 5.95289 1.4 3.15408 -42.6827 64.146
213 6.99718 5.95289 1.4 3.4381 -46.1684 -146.313
214 7.99718 5.95289 1.4 3.96142 -48.9727 133.501
215 8.99718 5.95289 1.4 4.64383 -49.368 -79.7587
216 9.99718 5.95289 1.4 5.42563 -51.1159 143.157
217 10.9972 5.95289 1.4 6.26975 -55.4942 82.3443
218 11.9972 5.95289 1.4 7.15416 -43.0296 46.2232
219 12.9972 5.95289 1.4 8.06563 -62.6154 -111.524
220 13.9972 5.95289 1.4 8.99593 -69.0943 -13.1145
221 14.9972 5.95289 1.4 9.93977 -65.6849 -4.9411
222 15.9972 5.95289 1.4 10.8936 -53.902 25.4826
223 16.9972 5.95289 1.4 11.8551 -63.3381 -112.748
224 17.9972 5.95289 1.4 12.8225 -69.3466 -170.737
225 18.9972 5.95289 1.4 13.7945 -61.4925 -92.4739
226 19.9972 5.95289 1.4 14.7703 -57.8131 -82.362
227 20.9972 5.95289 1.4 15.7491 -61.3983 -26.4248
228 21.9972 5.95289 1.4 16.7304 -59.5993 69.4126
229 22.9972 5.95289 1.4 17.7138 -65.9607 120.816
230 23.9972 5.95289 1.4 18.6989 -63.8885 146.286
231 24.9972 5.95289 1.4 19.6856 -64.2087 -40.9607
232 25.9972 5.95289 1.4 20.6735 -68.0334 -22.6418
233 26.9972 5.95289 1.4 21.6626 -72.5499 -123.955
234 27.9972 5.95289 1.4 22.6526 -78.987 124.071
235 28.9972 5.95289 1.4 23.6434 -85.6885 105.85
236 29.9972 5.95289 1.4 24.635 -86.4079 -80.0509
237 -28.0028 6.95289 1.4 33.8162 -118.303 59.8915
238 -27.0028 6.95289 1.4 32.8239 -116.994 -38.192
239 -26.0028 6.95289 1.4 31.8321 -138.698 -76.1105
240 -25.0028 6.95289 1.4 30.8408 -143.112 58.5616
241 -24.0028 6.95289 1.4 29.8501 -250 0
242 -23.0028 6.95289 1.4 28.86 -250 0
243 -22.0028 6.95289 1.4 27.8706 -250 0
244 -21.0028 6.95289 1.4 26.882 -250 0
245 -20.0028 6.95289 1.4 25.8943 -94.3339 -171.242
246 -19.0028 6.95289 1.4 24.9076 -83.7924 161.782
247 -18.0028 6.95289 1.4 23.922 -89.0608 33.7243
248 -17.0028 6.95289 1.4 22.9376 -62.6298 -79.9032
249 -16.0028 6.95289 1.4 21.9546 -60.3246 5.39951
250 -15.0028 6.95289 1.4 20.9733 -58.7542 50.2031
251 -14.0028 6.95289 1.4 19.9937 -68.6377 105.546
252 -13.0028 6.95289 1.4 19.0164 -81.4987 103.021
253 -12.0028 6.95289 1.4 18.0415 -56.6003 -85.4771
254 -11.0028 6.95289 1.4 17.0695 -54.3952 -112.981
255 -10.0028 6.95289 1.4 16.1009 -60.7442 130.836
256 -9.00282 6.95289 1.4 15.1364 -64.0747 137.07
257 -8.00282 6.95289 1.4 14.1769 -61.5545 101.911
258 -7.00282 6.95289 1.4 13.2233 -64.2632 28.9449
259 -6.00282 6.95289 1.4 12.2771 -53.5822 -73.94
260 -5.00282 6.95289 1.4 11.3402 -59.8079 -103.297
261 -4.00282 6.95289 1.4 10.415 -58.6794 99.0122
262 -3.00282 6.95289 1.4 9.505 -58.8163 -19.7226
263 -2.00282 6.95289 1.4 8.61495 -55.0067 68.3471
264 -1.00282 6.95289 1.4 7.75175 -55.3888 67.5138
265 -0.00282 6.95289 1.4 6.92546 -54.5988 72.8429
266 0.99718 6.95289 1.4 6.15096 -84.983 148.7
267 1.99718 6.95289 1.4 5.45038 -62.2976 -55.3679
268 2.99718 6.95289 1.4 4.85581 -54.1536 178.36
269 3.99718 6.95289 1.4 4.41035 -44.1074 -83.979
270 4.99718 6.95289 1.4 4.16215 -43.0366 -41.7442
271 5.99718 6.95289 1.4 4.14678 -48.3085 -23.5826
272 6.99718 6.95289 1.4 4.36671 -46.6266 22.2655
273 7.99718 6.95289 1.4 4.78962 -62.5514 115.495
274 8.99718 6.95289 1.4 5.36775 -51.5761 5.15113
275 9.99718 6.95289 1.4 6.05682 -52.0223 136.62
276 10.9972 6.95289 1.4 6.82329 -47.4235 16.3934
277 11.9972 6.95289 1.4 7.64393 -52.2388 137.47
278 12.9972 6.95289 1.4 8.50305 -50.2196 -22.7902
279 13.9972 6.95289 1.4 9.39011 -49.3995 -54.8079
280 14.9972 6.95289 1.4 10.2979 -77.8229 2.9731
281 15.9972 6.95289 1.4 11.2214 -58.2099 101.311
282 16.9972 6.95289 1.4 12.1569 -70.8624 90.652
283 17.9972 6.95289 1.4 13.102 -62.463 104.428
284 18.9972 6.95289 1.4 14.0547 -67.1651 119.093
285 19.9972 6.95289 1.4 15.0136 -60.2245 -166.935
286 20.9972 6.95289 1.4 15.9775 -64.9731 -134.22
287 21.9972 6.95289 1.4 16.9456 -74.7618 109.865
288 22.9972 6.95289 1.4 17.9172 -70.3567 15.9194
289 23.9972 6.95289 1.4 18.8917 -62.0916 43.2497
290 24.9972 6.95289 1.4 19.8688 -65.5145 -116.734
291 25.9972 6.95289 1.4 20.8481 -72.6858 -145.077
292 26.9972 6.95289 1.4 21.8292 -68.5144 123.556
293 27.9972 6.95289 1.4 22.812 -78.7765 114.81
294 28.9972 6.95289 1.4 23.7962 -91.6874 153.046
295 29.9972 6.95289 1.4 24.7817 -86.3615 -80.1134
296 -28.0028 7.95289 1.4 33.9527 -106.6 -76.9365
297 -27.0028 7.95289 1.4 32.9645 -102.402 10.7225
298 -26.0028 7.95289 1.4 31.977 -133.718 -57.3977
299 -25.0028 7.95289 1.4 30.9904 -145.205 -38.4636
300 -24.0028 7.95289 1.4 30.0046 -250 0
301 -23.0028 7.95289 1.4 29.0198 -250 0
302 -22.0028 7.95289 1.4 28.036 -125.1 -120.186
303 -21.0028 7.95289 1.4 27.0535 -125.792 168.766
304 -20.0028 7.95289 1.4 26.0723 -87.5883 -40.5855
305 -19.0028 7.95289 1.4 25.0925 -82.9244 -43.3653
306 -18.0028 7.95289 1.4 24.1145 -79.9975 28.1313
307 -17.0028 7.95289 1.4 23.1383 -66.3468 -74.4266
308 -16.0028 7.95289 1.4 22.1642 -67.2217 15.72
309 -15.0028 7.95289 1.4 21.1926 -68.7174 -33.6687
310 -14.0028 7.95289 1.4 20.2237 -65.07 166.808
311 -13.0028 7.95289 1.4 19.258 -53.9199 -139.902
312 -12.0028 7.95289 1.4 18.296 -61.1662 -148.131
313 -11.0028 7.95289 1.4 17.3382 -60.2932 117.074
314 -10.0028 7.95289 1.4 16.3856 -57.3538 73.6391
315 -9.00282 7.95289 1.4 15.4389 -64.9655 -110.854
316 -8.00282 7.95289 1.4 14.4993 -60.9258 96.0079
317 -7.00282 7.95289 1.4 13.5685 -58.0081 160.979
318 -6.00282 7.95289 1.4 12.6482 -60.2239 -39.6406
319 -5.00282 7.95289 1.4 11.7409 -62.1684 -146.538
320 -4.00282 7.95289 1.4 10.8499 -59.8473 -58.8802
321 -3.00282 7.95289 1.4 9.97961 -54.1117 46.0436
322 -2.00282 7.95289 1.4 9.13592 -51.9527 -3.35184
323 -1.00282 7.95289 1.4 8.3269 -54.7465 -57.6478
324 -0.00282 7.95289 1.4 7.5637 -56.6836 37.0999
325 0.99718 7.95289 1.4 6.86162 -54.1127 -48.7452
326 1.99718 7.95289 1.4 6.24133 -51.0961 -5.60542
327 2.99718 7.95289 1.4 5.72944 -65.5427 -31.4286
328 3.99718 7.95289 1.4 5.35712 -55.998 157.128
329 4.99718 7.95289 1.4 5.15471 -45.1104 156.713
330 5.99718 7.95289 1.4 5.14231 -49.954 -98.5546
331 6.99718 7.95289 1.4 5.32125 -51.7716 123.463
332 7.99718 7.95289 1.4 5.67345 -54.5077 138.36
333 8.99718 7.95289 1.4 6.1693 -58.7679 177.09
334 9.99718 7.95289 1.4 6.77736 -62.0287 3.78413
335 10.9972 7.95289 1.4 7.47027 -48.6743 -79.4192
336 11.9972 7.95289 1.4 8.22662 -56.885 -153.315
337 12.9972 7.95289 1.4 9.03048 -52.8849 11.585
338 13.9972 7.95289 1.4 9.87025 -63.5918 52.3289
339 14.9972 7.95289 1.4 10.7375 -60.5 -158.96
340 15.9972 7.95289 1.4 11.6261 -64.7192 -117.259
341 16.9972 7.95289 1.4 12.5315 -60.936 17.8576
342 17.9972 7.95289 1.4 13.4503 -74.476 -153.709
343 18.9972 7.95289 1.4 14.38 -70.4473 40.3657
344 19.9972 7.95289 1.4 15.3185 -68.5881 117.725
345 20.9972 7.95289 1.4 16.2643 -67.4388 -161.726
346 21.9972 7.95289 1.4 17.2163 -76.8807 134.499
347 22.9972 7.95289 1.4 18.1734 -68.1663 -30.1646
348 23.9972 7.95289 1.4 19.1349 -66.7546 7.95395
349 24.9972 7.95289 1.4 20.1002 -66.4222 -171.978
350 25.9972 7.95289 1.4 21.0687 -67.246 -151.145
351 26.9972 7.95289 1.4 22.04 -91.5574 -169.539
352 27.9972 7.95289 1.4 23.0138 -83.8952 81.2386
353 28.9972 7.95289 1.4 23.9897 -86.7517 9.1985
354 29.9972 7.95289 1.4 24.9676 -84.3533 86.0451
355 -28.0028 8.95289 1.4 34.1179 -115.232 8.21345
356 -27.0028 8.95289 1.4 33.1346 -105.834 -23.9811
357 -26.0028 8.95289 1.4 32.1524 -101.538 77.689
358 -25.0028 8.95289 1.4 31.1713 -102.71 141.298
359 -24.0028 8.95289 1.4 30.1914 -116.549 -42.2859
360 -23.0028 8.95289 1.4 29.2129 -125.693 -67.2839
361 -22.0028 8.95289 1.4 28.2359 -148.676 -77.1003
362 -21.0028 8.95289 1.4 27.2606 -148.104 2.83731
363 -20.0028 8.95289 1.4 26.2871 -99.7012 109.863
364 -19.0028 8.95289 1.4 25.3157 -83.3978 -179.468
365 -18.0028 8.95289 1.4 24.3466 -83.7756 120.095
366 -17.0028 8.95289 1.4 23.3801 -68.7522 -101.707
367 -16.0028 8.95289 1.4 22.4165 -62.6965 -167.367
368 -15.0028 8.95289 1.4 21.4563 -81.7685 174.051
369 -14.0028 8.95289 1.4 20.4999 -63.2548 113.321
370 -13.0028 8.95289 1.4 19.5478 -62.1751 69.7678
371 -12.0028 8.95289 1.4 18.6008 -64.3534 -93.2226
372 -11.0028 8.95289 1.4 17.6596 -56.8696 -82.1929
373 -10.0028 8.95289 1.4 16.7253 -58.2918 -160.487
374 -9.00282 8.95289 1.4 15.7989 -64.2383 145.318
375 -8.00282 8.95289 1.4 14.8822 -74.929 161.468
376 -7.00282 8.95289 1.4 13.9768 -65.0707 6.2314
377 -6.00282 8.95289 1.4 13.0852 -63.6319 170.234
378 -5.00282 8.95289 1.4 12.2105 -56.4697 -89.7229
379 -4.00282 8.95289 1.4 11.3564 -62.4764 -84.5151
380 -3.00282 8.95289 1.4 10.5281 -57.5834 -136.185
381 -2.00282 8.95289 1.4 9.73204 -51.1544 101.71
382 -1.00282 8.95289 1.4 8.97691 -65.5743 -100.034
383 -0.00282 8.95289 1.4 8.27388 -57.573 -162.904
384 0.99718 8.95289 1.4 7.63737 -57.7359 -145.148
385 1.99718 8.95289 1.4 7.08532 -54.4717 63.6499
386 2.99718 8.95289 1.4 6.63883 -62.4984 7.23262
387 3.99718 8.95289 1.4 6.32031 -47.7442 -11.1729
388 4.99718 8.95289 1.4 6.14969 -45.3322 -177.059
389 5.99718 8.95289 1.4 6.1393 -50.1122 -46.7167
390 6.99718 8.95289 1.4 6.28993 -60.2111 161.071
391 7.99718 8.95289 1.4 6.59057 -53.587 -137.578
392 8.99718 8.95289 1.4 7.02196 -44.2691 85.7665
393 9.99718 8.95289 1.4 7.56176 -63.6479 150.057
394 10.9972 8.95289 1.4 8.18856 -59.6619 -22.011
395 11.9972 8.95289 1.4 8.88396 -58.3159 120.01
396 12.9972 8.95289 1.4 9.63312 -45.8261 38.0215
397 13.9972 8.95289 1.4 10.4245 -61.0998 105.181
398 14.9972 8.95289 1.4 11.2491 -52.5137 -67.1961
399 15.9972 8.95289 1.4 12.1002 -53.4627 148.096
400 16.9972 8.95289 1.4 12.9725 -61.5774 9.63316
401 17.9972 8.95289 1.4 13.8621 -69.7558 162.011
402 18.9972 8.95289 1.4 14.7659 -66.6791 -139.449
403 19.9972 8.95289 1.4 15.6813 -64.502 161.783
404 20.9972 8.95289 1.4 16.6065 -79.4146 153.891
405 21.9972 8.95289 1.4 17.5399 -70.5487 86.1426
406 22.9972 8.95289 1.4 18.4803 -66.3285 -103.465
407 23.9972 8.95289 1.4 19.4266 -65.0079 -116.833
408 24.9972 8.95289 1.4 20.378 -74.8853 69.7447
409 25.9972 8.95289 1.4 21.3339 -85.8079 14.1602
410 26.9972 8.95289 1.4 22.2937 -81.2894 -6.62378
411 27.9972 8.95289 1.4 23.2569 -83.782 -82.315
