#Rx
# X(m), Y(m), Z(m), Distance(m), Power (dBm) Phase (deg)
1 -28.0028 2.95289 1.4 33.5641 -250 0
2 -27.2528 2.95289 1.4 32.8141 -250 0
3 -26.5028 2.95289 1.4 32.0641 -250 0
4 -25.7528 2.95289 1.4 31.3141 -250 0
5 -25.0028 2.95289 1.4 30.5641 -250 0
6 -24.2528 2.95289 1.4 29.8141 -250 0
7 -23.5028 2.95289 1.4 29.0641 -250 0
8 -22.7528 2.95289 1.4 28.3141 -250 0
9 -22.0028 2.95289 1.4 27.5641 -250 0
10 -21.2528 2.95289 1.4 26.8141 -250 0
11 -20.5028 2.95289 1.4 26.0641 -93.5677 -54.1561
12 -19.7528 2.95289 1.4 25.3142 -79.891 20.734
13 -19.0028 2.95289 1.4 24.5642 -77.7747 43.9573
14 -18.2528 2.95289 1.4 23.8142 -81.7188 46.7166
15 -17.5028 2.95289 1.4 23.0642 -90.1567 116.137
16 -16.7528 2.95289 1.4 22.3142 -73.7078 136.124
17 -16.0028 2.95289 1.4 21.5642 -69.9599 80.1614
18 -15.2528 2.95289 1.4 20.8142 -63.6505 91.2954
19 -14.5028 2.95289 1.4 20.0642 -66.5754 -5.61451
20 -13.7528 2.95289 1.4 19.3142 -65.4492 -42.3654
21 -13.0028 2.95289 1.4 18.5643 -68.2219 -171.973
22 -12.2528 2.95289 1.4 17.8143 -70.4701 51.4085
23 -11.5028 2.95289 1.4 17.0643 -76.031 86.6499
24 -10.7528 2.95289 1.4 16.3143 -66.7415 118.619
25 -10.0028 2.95289 1.4 15.5643 -64.0633 -118.794
26 -9.25282 2.95289 1.4 14.8144 -66.3826 -87.1087
27 -8.50282 2.95289 1.4 14.0644 -68.4418 88.869
28 -7.75282 2.95289 1.4 13.3144 -83.0347 147.666
29 -7.00282 2.95289 1.4 12.5645 -64.7404 177.293
30 -6.25282 2.95289 1.4 11.8145 -63.7457 -125.466
31 -5.50282 2.95289 1.4 11.0645 -65.1626 -81.6612
32 -4.75282 2.95289 1.4 10.3146 -69.1543 -33.5528
33 -4.00282 2.95289 1.4 9.56465 -65.7558 49.158
34 -3.25282 2.95289 1.4 8.81472 -68.3892 -117.42
35 -2.50282 2.95289 1.4 8.0648 -54.9299 -153.395
36 -1.75282 2.95289 1.4 7.3149 -54.9954 -127.641
37 -1.00282 2.95289 1.4 6.56502 -61.9499 -45.1943
38 -0.25282 2.95289 1.4 5.81517 -53.5352 12.8479
39 0.49718 2.95289 1.4 5.06536 -52.6041 88.9335
40 1.24718 2.95289 1.4 4.31562 -44.7473 -178.216
41 1.99718 2.95289 1.4 3.566 -42.3625 -163.303
42 2.74718 2.95289 1.4 2.81657 -43.2693 -125.741
43 3.49718 2.95289 1.4 2.06756 -45.2051 -57.6861
44 4.24718 2.95289 1.4 1.31967 -37.5514 61.7034
45 4.99718 2.95289 1.4 0.577276 -30.2489 100.243
46 5.74718 2.95289 1.4 0.22355 -22.4909 62.054
47 6.49718 2.95289 1.4 0.9443 -34.1236 93.2049
48 7.24718 2.95289 1.4 1.69069 -36.3379 48.1635
49 7.99718 2.95289 1.4 2.43929 -45.2374 -58.5977
50 8.74718 2.95289 1.4 3.18856 -40.7834 -60.617
51 9.49718 2.95289 1.4 3.9381 -44.6904 -112.681
52 10.2472 2.95289 1.4 4.68779 -45.3278 144.041
53 10.9972 2.95289 1.4 5.43756 -55.0355 54.3758
54 11.7472 2.95289 1.4 6.18739 -48.9975 26.6125
55 12.4972 2.95289 1.4 6.93726 -51.4493 10.4097
56 13.2472 2.95289 1.4 7.68715 -54.1432 -17.9049
57 13.9972 2.95289 1.4 8.43706 -54.9766 -178.063
58 14.7472 2.95289 1.4 9.18699 -57.2536 134.082
59 15.4972 2.95289 1.4 9.93692 -58.6275 86.0224
60 16.2472 2.95289 1.4 10.6869 -56.7987 44.2752
61 16.9972 2.95289 1.4 11.4368 -58.3192 21.3621
62 17.7472 2.95289 1.4 12.1868 -68.5917 -129.73
63 18.4972 2.95289 1.4 12.9367 -67.9405 170.66
64 19.2472 2.95289 1.4 13.6867 -69.6765 -114.582
65 19.9972 2.95289 1.4 14.4367 -62.6008 178.037
66 20.7472 2.95289 1.4 15.1867 -62.9721 -155.075
67 21.4972 2.95289 1.4 15.9366 -68.6415 160.896
68 22.2472 2.95289 1.4 16.6866 -66.0075 -11.3125
69 22.9972 2.95289 1.4 17.4366 -58.8062 47.8113
70 23.7472 2.95289 1.4 18.1866 -64.9852 104.915
71 24.4972 2.95289 1.4 18.9366 -59.8708 103.631
72 25.2472 2.95289 1.4 19.6865 -105.925 -157.245
73 25.9972 2.95289 1.4 20.4365 -61.724 -65.4586
74 26.7472 2.95289 1.4 21.1865 -71.689 -29.2523
75 27.4972 2.95289 1.4 21.9365 -96.4361 41.707
76 28.2472 2.95289 1.4 22.6865 -82.3013 129.647
77 28.9972 2.95289 1.4 23.4365 -76.8237 -9.54885
78 29.7472 2.95289 1.4 24.1865 -86.8361 -40.7844
79 30.4972 2.95289 1.4 24.9365 -74.6238 -43.5154
80 -28.0028 3.70289 1.4 33.5752 -250 0
81 -27.2528 3.70289 1.4 32.8255 -250 0
82 -26.5028 3.70289 1.4 32.0758 -250 0
83 -25.7528 3.70289 1.4 31.326 -250 0
84 -25.0028 3.70289 1.4 30.5763 -250 0
85 -24.2528 3.70289 1.4 29.8267 -250 0
86 -23.5028 3.70289 1.4 29.077 -250 0
87 -22.7528 3.70289 1.4 28.3273 -250 0
88 -22.0028 3.70289 1.4 27.5777 -250 0
89 -21.2528 3.70289 1.4 26.8281 -250 0
90 -20.5028 3.70289 1.4 26.0785 -100.219 175.4
91 -19.7528 3.70289 1.4 25.3289 -76.3696 -30.6143
92 -19.0028 3.70289 1.4 24.5794 -79.1805 -20.6421
93 -18.2528 3.70289 1.4 23.8299 -83.8256 3.2021
94 -17.5028 3.70289 1.4 23.0804 -85.8186 91.1648
95 -16.7528 3.70289 1.4 22.3309 -78.7711 18.8532
96 -16.0028 3.70289 1.4 21.5815 -76.513 -7.2364
97 -15.2528 3.70289 1.4 20.8322 -66.9068 101.947
98 -14.5028 3.70289 1.4 20.0829 -60.8977 -91.3179
99 -13.7528 3.70289 1.4 19.3336 -65.505 -105.832
100 -13.0028 3.70289 1.4 18.5844 -65.2163 114.102
101 -12.2528 3.70289 1.4 17.8353 -58.3207 70.7552
102 -11.5028 3.70289 1.4 17.0862 -66.6426 37.6447
103 -10.7528 3.70289 1.4 16.3372 -63.8961 133.918
104 -10.0028 3.70289 1.4 15.5884 -64.9962 -132.937
105 -9.25282 3.70289 1.4 14.8396 -64.3546 -173.941
106 -8.50282 3.70289 1.4 14.091 -68.1927 -95.7063
107 -7.75282 3.70289 1.4 13.3425 -60.4474 49.6038
108 -7.00282 3.70289 1.4 12.5942 -58.514 56.1379
109 -6.25282 3.70289 1.4 11.8461 -59.1532 123.65
110 -5.50282 3.70289 1.4 11.0983 -60.9049 172.283
111 -4.75282 3.70289 1.4 10.3508 -58.4713 -144.042
112 -4.00282 3.70289 1.4 9.60368 -57.4919 -95.5323
113 -3.25282 3.70289 1.4 8.85705 -59.5135 -6.86579
114 -2.50282 3.70289 1.4 8.11105 -49.8838 48.1472
115 -1.75282 3.70289 1.4 7.36586 -49.6579 73.1045
116 -1.00282 3.70289 1.4 6.62175 -56.9245 98.6096
117 -0.25282 3.70289 1.4 5.87914 -54.8186 -126.551
118 0.49718 3.70289 1.4 5.13868 -52.5268 -97.8917
119 1.24718 3.70289 1.4 4.40145 -50.3769 -18.5877
120 1.99718 3.70289 1.4 3.6694 -50.1392 -34.3811
121 2.74718 3.70289 1.4 2.94639 -49.9419 -70.844
122 3.49718 3.70289 1.4 2.2412 -41.8879 -164.954
123 4.24718 3.70289 1.4 1.57788 -41.2923 21.5625
124 4.99718 3.70289 1.4 1.03991 -34.9285 177.42
125 5.74718 3.70289 1.4 0.893392 -32.9968 -117.201
126 6.49718 3.70289 1.4 1.28058 -37.8158 -169.746
127 7.24718 3.70289 1.4 1.89911 -41.182 133.76
128 7.99718 3.70289 1.4 2.58811 -41.5695 -84.6557
129 8.74718 3.70289 1.4 3.30379 -65.0488 124.09
130 9.49718 3.70289 1.4 4.03197 -44.1643 -52.3388
131 10.2472 3.70289 1.4 4.76692 -45.8234 -48.3913
132 10.9972 3.70289 1.4 5.50593 -57.048 -105.305
133 11.7472 3.70289 1.4 6.24756 -50.8599 -165.063
134 12.4972 3.70289 1.4 6.99097 -48.7929 -169.849
135 13.2472 3.70289 1.4 7.73566 -58.6109 169.748
136 13.9972 3.70289 1.4 8.48128 -52.0564 47.9825
137 14.7472 3.70289 1.4 9.22762 -53.4004 -34.5662
138 15.4972 3.70289 1.4 9.9745 -52.5984 -78.4593
139 16.2472 3.70289 1.4 10.7218 -49.5941 -92.6906
140 16.9972 3.70289 1.4 11.4695 -59.7312 -153.96
141 17.7472 3.70289 1.4 12.2174 -61.7065 130.274
142 18.4972 3.70289 1.4 12.9656 -55.7193 45.3454
143 19.2472 3.70289 1.4 13.714 -58.4133 20.6496
144 19.9972 3.70289 1.4 14.4626 -62.4247 0.31398
145 20.7472 3.70289 1.4 15.2113 -60.0123 -116.398
146 21.4972 3.70289 1.4 15.9601 -61.8095 -153.228
147 22.2472 3.70289 1.4 16.709 -61.7789 163.281
148 22.9972 3.70289 1.4 17.458 -64.6344 9.39867
149 23.7472 3.70289 1.4 18.2071 -60.5104 -16.3342
150 24.4972 3.70289 1.4 18.9563 -59.8354 -62.2666
151 25.2472 3.70289 1.4 19.7055 -61.8892 8.53316
152 25.9972 3.70289 1.4 20.4548 -66.6924 -20.3439
153 26.7472 3.70289 1.4 21.2042 -69.8214 -93.5805
154 27.4972 3.70289 1.4 21.9535 -80.4907 -109.06
155 28.2472 3.70289 1.4 22.703 -75.2377 -135.671
156 28.9972 3.70289 1.4 23.4524 -79.3526 -137.857
157 29.7472 3.70289 1.4 24.2019 -80.4228 -106.284
158 30.4972 3.70289 1.4 24.9515 -85.7395 -57.4835
159 -28.0028 4.45289 1.4 33.6031 -250 0
160 -27.2528 4.45289 1.4 32.854 -250 0
161 -26.5028 4.45289 1.4 32.1049 -250 0
162 -25.7528 4.45289 1.4 31.3559 -250 0
163 -25.0028 4.45289 1.4 30.607 -250 0
164 -24.2528 4.45289 1.4 29.858 -250 0
165 -23.5028 4.45289 1.4 29.1092 -250 0
166 -22.7528 4.45289 1.4 28.3604 -250 0
167 -22.0028 4.45289 1.4 27.6116 -250 0
168 -21.2528 4.45289 1.4 26.863 -250 0
169 -20.5028 4.45289 1.4 26.1144 -100.111 -173.992
170 -19.7528 4.45289 1.4 25.3659 -90.1898 -146.438
171 -19.0028 4.45289 1.4 24.6175 -92.5768 -126.266
172 -18.2528 4.45289 1.4 23.8691 -97.7353 73.714
173 -17.5028 4.45289 1.4 23.1209 -84.4912 59.4797
174 -16.7528 4.45289 1.4 22.3729 -66.0385 2.18753
175 -16.0028 4.45289 1.4 21.6249 -65.6221 37.8026
176 -15.2528 4.45289 1.4 20.8771 -61.006 39.4525
177 -14.5028 4.45289 1.4 20.1294 -61.6015 136.658
178 -13.7528 4.45289 1.4 19.382 -58.921 105.916
179 -13.0028 4.45289 1.4 18.6347 -63.2802 -153.484
180 -12.2528 4.45289 1.4 17.8877 -59.1204 -43.7639
181 -11.5028 4.45289 1.4 17.1409 -57.7725 -47.6631
182 -10.7528 4.45289 1.4 16.3945 -74.4083 -108.891
183 -10.0028 4.45289 1.4 15.6483 -57.1038 54.7122
184 -9.25282 4.45289 1.4 14.9026 -56.9006 124.003
185 -8.50282 4.45289 1.4 14.1573 -63.4201 138.81
186 -7.75282 4.45289 1.4 13.4125 -59.0418 168.6
187 -7.00282 4.45289 1.4 12.6683 -56.9086 -117.872
188 -6.25282 4.45289 1.4 11.9249 -57.1999 -87.7425
189 -5.50282 4.45289 1.4 11.1824 -59.4487 -60.0098
190 -4.75282 4.45289 1.4 10.4409 -62.1378 4.28494
191 -4.00282 4.45289 1.4 9.70071 -57.8703 62.7144
192 -3.25282 4.45289 1.4 8.96218 -58.2104 -169.856
193 -2.50282 4.45289 1.4 8.22571 -55.6992 -166.347
194 -1.75282 4.45289 1.4 7.49193 -55.5962 -173.693
195 -1.00282 4.45289 1.4 6.76171 -62.1088 160.473
196 -0.25282 4.45289 1.4 6.03635 -54.2234 73.7488
197 0.49718 4.45289 1.4 5.31782 -49.7462 66.2015
198 1.24718 4.45289 1.4 4.60933 -49.6568 47.6174
199 1.99718 4.45289 1.4 3.91634 -50.1077 -88.6015
200 2.74718 4.45289 1.4 3.24876 -46.9257 110.258
201 3.49718 4.45289 1.4 2.62605 -42.6816 -168.435
202 4.24718 4.45289 1.4 2.08875 -42.1856 -15.9352
203 4.99718 4.45289 1.4 1.71889 -40.1267 -52.1191
204 5.74718 4.45289 1.4 1.63442 -42.5575 -133.859
205 6.49718 4.45289 1.4 1.87431 -46.7242 -152.776
206 7.24718 4.45289 1.4 2.34089 -47.2345 -15.3609
207 7.99718 4.45289 1.4 2.92771 -40.6711 16.4657
208 8.74718 4.45289 1.4 3.57606 -52.5408 -81.8611
209 9.49718 4.45289 1.4 4.25793 -45.2539 8.4785
210 10.2472 4.45289 1.4 4.9595 -54.7927 147.101
211 10.9972 4.45289 1.4 5.67348 -48.6715 54.0477
212 11.7472 4.45289 1.4 6.39571 -51.8304 116.187
213 12.4972 4.45289 1.4 7.12368 -55.4191 164.092
214 13.2472 4.45289 1.4 7.8558 -57.3674 175.902
215 13.9972 4.45289 1.4 8.591 -57.9252 175.992
216 14.7472 4.45289 1.4 9.32856 -57.4842 103.291
217 15.4972 4.45289 1.4 10.068 -51.8061 55.8666
218 16.2472 4.45289 1.4 10.8088 -54.8447 55.3106
219 16.9972 4.45289 1.4 11.5509 -57.5513 0.749135
220 17.7472 4.45289 1.4 12.2939 -55.7059 -102.365
221 18.4972 4.45289 1.4 13.0377 -56.8635 -146.886
222 19.2472 4.45289 1.4 13.7821 -57.3351 166.39
223 19.9972 4.45289 1.4 14.5272 -58.3847 125.008
224 20.7472 4.45289 1.4 15.2727 -60.5839 72.9369
225 21.4972 4.45289 1.4 16.0187 -54.2049 37.1647
226 22.2472 4.45289 1.4 16.765 -66.6653 11.7569
227 22.9972 4.45289 1.4 17.5116 -58.6215 -83.3218
228 23.7472 4.45289 1.4 18.2585 -53.3741 -102.468
229 24.4972 4.45289 1.4 19.0056 -57.5777 -141.606
230 25.2472 4.45289 1.4 19.753 -78.4246 37.7663
231 25.9972 4.45289 1.4 20.5006 -79.8847 -12.9264
232 26.7472 4.45289 1.4 21.2483 -92.1987 45.3241
233 27.4972 4.45289 1.4 21.9962 -81.7913 145.054
234 28.2472 4.45289 1.4 22.7442 -82.7021 -172.613
235 28.9972 4.45289 1.4 23.4923 -82.2114 -133.731
236 29.7472 4.45289 1.4 24.2406 -81.6789 -103.472
237 30.4972 4.45289 1.4 24.989 -79.2482 -101.895
238 -28.0028 5.20289 1.4 33.6477 -250 0
239 -27.2528 5.20289 1.4 32.8996 -250 0
240 -26.5028 5.20289 1.4 32.1516 -250 0
241 -25.7528 5.20289 1.4 31.4037 -250 0
242 -25.0028 5.20289 1.4 30.6559 -250 0
243 -24.2528 5.20289 1.4 29.9082 -250 0
244 -23.5028 5.20289 1.4 29.1606 -250 0
245 -22.7528 5.20289 1.4 28.4132 -250 0
246 -22.0028 5.20289 1.4 27.6659 -250 0
247 -21.2528 5.20289 1.4 26.9187 -250 0
248 -20.5028 5.20289 1.4 26.1717 -94.1585 58.7185
249 -19.7528 5.20289 1.4 25.4249 -90.6895 95.7766
250 -19.0028 5.20289 1.4 24.6783 -88.1091 100.144
251 -18.2528 5.20289 1.4 23.9319 -90.6527 131.073
252 -17.5028 5.20289 1.4 23.1857 -87.8941 -153.925
253 -16.7528 5.20289 1.4 22.4398 -63.6558 159.244
254 -16.0028 5.20289 1.4 21.6941 -59.8995 -172.926
255 -15.2528 5.20289 1.4 20.9488 -58.8578 -133.05
256 -14.5028 5.20289 1.4 20.2038 -67.2392 -77.7618
257 -13.7528 5.20289 1.4 19.4592 -57.3477 -38.0521
258 -13.0028 5.20289 1.4 18.715 -58.8784 68.7613
259 -12.2528 5.20289 1.4 17.9713 -59.4267 21.2844
260 -11.5028 5.20289 1.4 17.2282 -61.0149 83.5347
261 -10.7528 5.20289 1.4 16.4856 -65.3902 179.732
262 -10.0028 5.20289 1.4 15.7438 -70.4689 75.9207
263 -9.25282 5.20289 1.4 15.0028 -60.1697 -99.1014
264 -8.50282 5.20289 1.4 14.2628 -66.1991 -95.7891
265 -7.75282 5.20289 1.4 13.5238 -63.5857 -85.1412
266 -7.00282 5.20289 1.4 12.7861 -61.5515 20.7975
267 -6.25282 5.20289 1.4 12.05 -59.7778 69.1495
268 -5.50282 5.20289 1.4 11.3156 -63.1365 105.801
269 -4.75282 5.20289 1.4 10.5835 -68.8212 -170.121
270 -4.00282 5.20289 1.4 9.85404 -60.8906 -100.496
271 -3.25282 5.20289 1.4 9.12791 -53.6447 -72.6551
272 -2.50282 5.20289 1.4 8.40598 -54.3999 -61.3592
273 -1.75282 5.20289 1.4 7.68942 -55.9225 -70.4286
274 -1.00282 5.20289 1.4 6.9799 -66.2291 142.199
275 -0.25282 5.20289 1.4 6.27978 -56.7125 96.9519
276 0.49718 5.20289 1.4 5.59262 -48.9077 32.4395
277 1.24718 5.20289 1.4 4.92383 -47.4911 174.792
278 1.99718 5.20289 1.4 4.28204 -49.4713 -65.2872
279 2.74718 5.20289 1.4 3.68138 -46.4156 -63.8509
280 3.49718 5.20289 1.4 3.14552 -49.3819 -178.705
281 4.24718 5.20289 1.4 2.71312 -43.4445 -98.2734
282 4.99718 5.20289 1.4 2.43983 -43.1895 -43.5839
283 5.74718 5.20289 1.4 2.38107 -41.6532 162.871
284 6.49718 5.20289 1.4 2.55171 -45.8621 9.72925
285 7.24718 5.20289 1.4 2.91169 -41.2405 47.9025
286 7.99718 5.20289 1.4 3.40142 -48.904 49.5238
287 8.74718 5.20289 1.4 3.97321 -45.6817 128.358
288 9.49718 5.20289 1.4 4.59654 -47.4519 -170.406
289 10.2472 5.20289 1.4 5.25308 -47.7084 -102.531
290 10.9972 5.20289 1.4 5.93183 -49.2981 98.508
291 11.7472 5.20289 1.4 6.62596 -48.7355 -105.457
292 12.4972 5.20289 1.4 7.3311 -51.3365 -96.4385
293 13.2472 5.20289 1.4 8.04436 -47.5194 -105.676
294 13.9972 5.20289 1.4 8.76376 -54.7737 -34.6199
295 14.7472 5.20289 1.4 9.4879 -55.2007 -19.6086
296 15.4972 5.20289 1.4 10.2158 -65.0714 -57.2059
297 16.2472 5.20289 1.4 10.9466 -71.2034 63.8538
298 16.9972 5.20289 1.4 11.6799 -63.7343 70.373
299 17.7472 5.20289 1.4 12.4152 -60.6253 -7.12162
300 18.4972 5.20289 1.4 13.1521 -62.0911 -15.0471
301 19.2472 5.20289 1.4 13.8905 -69.2178 -35.3456
302 19.9972 5.20289 1.4 14.63 -59.3586 -130.734
303 20.7472 5.20289 1.4 15.3706 -53.8516 -146.798
304 21.4972 5.20289 1.4 16.112 -60.9979 -162.493
305 22.2472 5.20289 1.4 16.8542 -63.1735 115.493
306 22.9972 5.20289 1.4 17.597 -58.1204 45.7716
307 23.7472 5.20289 1.4 18.3404 -55.4422 26.347
308 24.4972 5.20289 1.4 19.0844 -57.8856 28.7593
309 25.2472 5.20289 1.4 19.8288 -69.9203 -100.188
310 25.9972 5.20289 1.4 20.5736 -71.1901 175.244
311 26.7472 5.20289 1.4 21.3187 -75.2127 -162.998
312 27.4972 5.20289 1.4 22.0642 -87.0042 -57.0791
313 28.2472 5.20289 1.4 22.81 -85.3393 -73.0263
314 28.9972 5.20289 1.4 23.5561 -87.7667 -103.184
315 29.7472 5.20289 1.4 24.3024 -85.3466 -109.359
316 30.4972 5.20289 1.4 25.0489 -81.9194 -115.962
317 -28.0028 5.95289 1.4 33.7089 -250 0
318 -27.2528 5.95289 1.4 32.9622 -250 0
319 -26.5028 5.95289 1.4 32.2157 -250 0
320 -25.7528 5.95289 1.4 31.4693 -250 0
321 -25.0028 5.95289 1.4 30.7231 -117.469 -163.872
322 -24.2528 5.95289 1.4 29.9771 -250 0
323 -23.5028 5.95289 1.4 29.2312 -250 0
324 -22.7528 5.95289 1.4 28.4856 -250 0
325 -22.0028 5.95289 1.4 27.7403 -250 0
326 -21.2528 5.95289 1.4 26.9952 -250 0
327 -20.5028 5.95289 1.4 26.2504 -92.7394 77.6332
328 -19.7528 5.95289 1.4 25.5059 -90.1348 75.7139
329 -19.0028 5.95289 1.4 24.7617 -93.1333 64.2221
330 -18.2528 5.95289 1.4 24.0179 -89.2112 40.2841
331 -17.5028 5.95289 1.4 23.2744 -78.4267 98.6891
332 -16.7528 5.95289 1.4 22.5314 -61.3586 -112.455
333 -16.0028 5.95289 1.4 21.7889 -62.7025 -49.8995
334 -15.2528 5.95289 1.4 21.047 -64.0911 -33.5983
335 -14.5028 5.95289 1.4 20.3056 -78.8121 -13.7005
336 -13.7528 5.95289 1.4 19.5648 -64.4408 142.372
337 -13.0028 5.95289 1.4 18.8248 -66.2304 -111.784
338 -12.2528 5.95289 1.4 18.0857 -56.813 -144.741
339 -11.5028 5.95289 1.4 17.3474 -63.9982 -168.038
340 -10.7528 5.95289 1.4 16.6102 -59.7449 -169.608
341 -10.0028 5.95289 1.4 15.8742 -56.9138 43.1973
342 -9.25282 5.95289 1.4 15.1396 -61.2648 -30.1294
343 -8.50282 5.95289 1.4 14.4066 -67.7792 170.803
344 -7.75282 5.95289 1.4 13.6754 -67.2457 24.6097
345 -7.00282 5.95289 1.4 12.9464 -57.181 153.587
346 -6.25282 5.95289 1.4 12.2199 -60.8184 149.795
347 -5.50282 5.95289 1.4 11.4964 -61.662 142.531
348 -4.75282 5.95289 1.4 10.7765 -63.2139 88.0075
349 -4.00282 5.95289 1.4 10.0611 -61.4467 26.6042
350 -3.25282 5.95289 1.4 9.35104 -55.6528 18.3469
351 -2.50282 5.95289 1.4 8.64776 -54.9589 8.68592
352 -1.75282 5.95289 1.4 7.95301 -59.4191 132.433
353 -1.00282 5.95289 1.4 7.26926 -52.9411 82.0075
354 -0.25282 5.95289 1.4 6.59991 -57.1435 -67.5219
355 0.49718 5.95289 1.4 5.94984 -55.7181 53.1766
356 1.24718 5.95289 1.4 5.3261 -48.6213 113.048
357 1.99718 5.95289 1.4 4.7391 -48.1637 76.4013
358 2.74718 5.95289 1.4 4.20426 -51.2051 -100.972
359 3.49718 5.95289 1.4 3.74399 -62.3557 -70.6457
360 4.24718 5.95289 1.4 3.38884 -41.2737 30.4509
361 4.99718 5.95289 1.4 3.17426 -43.0428 -16.5737
362 5.74718 5.95289 1.4 3.12932 -42.7734 92.6914
363 6.49718 5.95289 1.4 3.26104 -47.2734 58.3148
364 7.24718 5.95289 1.4 3.54981 -52.2254 -71.5023
365 7.99718 5.95289 1.4 3.96142 -49.6656 144.108
366 8.74718 5.95289 1.4 4.46202 -45.2222 124.774
367 9.49718 5.95289 1.4 5.02507 -48.4569 -116.863
368 10.2472 5.95289 1.4 5.63188 -52.7571 -69.6208
369 10.9972 5.95289 1.4 6.26975 -53.6264 69.6545
370 11.7472 5.95289 1.4 6.93011 -47.9858 2.91981
371 12.4972 5.95289 1.4 7.60712 -52.3205 -175.681
372 13.2472 5.95289 1.4 8.29668 -55.4894 -23.5398
373 13.9972 5.95289 1.4 8.99593 -65.4565 57.3324
374 14.7472 5.95289 1.4 9.70275 -61.9695 91.5077
375 15.4972 5.95289 1.4 10.4156 -74.2946 31.7258
376 16.2472 5.95289 1.4 11.1334 -56.9637 76.0738
377 16.9972 5.95289 1.4 11.8551 -63.7609 -132.999
378 17.7472 5.95289 1.4 12.5802 -71.7767 156.598
379 18.4972 5.95289 1.4 13.308 -71.9592 -134.147
380 19.2472 5.95289 1.4 14.0381 -64.3739 -100.228
381 19.9972 5.95289 1.4 14.7703 -59.9691 -80.3788
382 20.7472 5.95289 1.4 15.5041 -63.8205 -53.5852
383 21.4972 5.95289 1.4 16.2394 -80.3927 59.7823
384 22.2472 5.95289 1.4 16.976 -67.3897 75.6071
385 22.9972 5.95289 1.4 17.7138 -68.222 126.93
386 23.7472 5.95289 1.4 18.4525 -60.666 117.434
387 24.4972 5.95289 1.4 19.1921 -62.4348 114.815
388 25.2472 5.95289 1.4 19.9325 -63.9693 -20.0869
389 25.9972 5.95289 1.4 20.6735 -63.276 -31.8811
390 26.7472 5.95289 1.4 21.4152 -67.0528 -75.6331
391 27.4972 5.95289 1.4 22.1575 -82.5757 56.1915
392 28.2472 5.95289 1.4 22.9002 -83.9779 42.789
393 28.9972 5.95289 1.4 23.6434 -88.2286 112.705
394 29.7472 5.95289 1.4 24.387 -89.578 -41.029
395 30.4972 5.95289 1.4 25.1311 -88.0473 -23.4012
396 -28.0028 6.70289 1.4 33.7867 -250 0
397 -27.2528 6.70289 1.4 33.0417 -250 0
398 -26.5028 6.70289 1.4 32.297 -250 0
399 -25.7528 6.70289 1.4 31.5525 -139.326 40.8104
400 -25.0028 6.70289 1.4 30.8084 -250 0
401 -24.2528 6.70289 1.4 30.0645 -250 0
402 -23.5028 6.70289 1.4 29.3209 -250 0
403 -22.7528 6.70289 1.4 28.5776 -250 0
404 -22.0028 6.70289 1.4 27.8347 -250 0
405 -21.2528 6.70289 1.4 27.0922 -250 0
406 -20.5028 6.70289 1.4 26.3501 -83.4787 -147.742
407 -19.7528 6.70289 1.4 25.6085 -83.9935 -130.22
408 -19.0028 6.70289 1.4 24.8674 -81.9325 176.986
409 -18.2528 6.70289 1.4 24.1269 -93.0454 -122.12
410 -17.5028 6.70289 1.4 23.3869 -94.411 94.9433
411 -16.7528 6.70289 1.4 22.6476 -66.3658 56.7117
412 -16.0028 6.70289 1.4 21.909 -66.792 69.3129
413 -15.2528 6.70289 1.4 21.1713 -64.4774 153.991
414 -14.5028 6.70289 1.4 20.4344 -74.4514 113.513
415 -13.7528 6.70289 1.4 19.6985 -66.9309 -77.93
