#Rx
# X(m), Y(m), Z(m), Distance(m), Power (dBm) Phase (deg)
1 -28.0028 2.95289 1.4 35.4418 -137.13 123.175
2 -27.2528 2.95289 1.4 34.7367 -143.309 -16.0741
3 -26.5028 2.95289 1.4 34.0335 -147.961 -3.05037
4 -25.7528 2.95289 1.4 33.3324 -162.969 129.209
5 -25.0028 2.95289 1.4 32.6335 -157.511 -107.346
6 -24.2528 2.95289 1.4 31.9369 -138.893 46.9444
7 -23.5028 2.95289 1.4 31.2427 -136.101 -136.918
8 -22.7528 2.95289 1.4 30.5512 -141.61 -20.9797
9 -22.0028 2.95289 1.4 29.8625 -139.496 155.113
10 -21.2528 2.95289 1.4 29.1769 -140.212 -40.2281
11 -20.5028 2.95289 1.4 28.4945 -126.866 -76.1599
12 -19.7528 2.95289 1.4 27.8155 -105.534 60.7387
13 -19.0028 2.95289 1.4 27.1403 -105.103 39.7569
14 -18.2528 2.95289 1.4 26.4692 -105.47 6.08203
15 -17.5028 2.95289 1.4 25.8024 -101.788 -176.653
16 -16.7528 2.95289 1.4 25.1402 -250 0
17 -16.0028 2.95289 1.4 24.4831 -250 0
18 -15.2528 2.95289 1.4 23.8316 -250 0
19 -14.5028 2.95289 1.4 23.1859 -250 0
20 -13.7528 2.95289 1.4 22.5468 -83.105 -87.0023
21 -13.0028 2.95289 1.4 21.9146 -70.3005 -135.861
22 -12.2528 2.95289 1.4 21.2901 -75.961 -39.9674
23 -11.5028 2.95289 1.4 20.674 -71.5162 -35.143
24 -10.7528 2.95289 1.4 20.067 -105.654 121.391
25 -10.0028 2.95289 1.4 19.4699 -105.731 170.132
26 -9.25282 2.95289 1.4 18.8838 -104.553 109.043
27 -8.50282 2.95289 1.4 18.3096 -85.2405 -8.19424
28 -7.75282 2.95289 1.4 17.7485 -75.6225 70.4527
29 -7.00282 2.95289 1.4 17.2019 -72.11 -109.83
30 -6.25282 2.95289 1.4 16.671 -100.624 68.0542
31 -5.50282 2.95289 1.4 16.1576 -95.9402 47.4624
32 -4.75282 2.95289 1.4 15.6632 -100.391 -108.197
33 -4.00282 2.95289 1.4 15.1898 -120.869 -177.636
34 -3.25282 2.95289 1.4 14.7394 -62.9074 171.471
35 -2.50282 2.95289 1.4 14.3141 -69.9836 119.687
36 -1.75282 2.95289 1.4 13.9163 -92.5471 -29.646
37 -1.00282 2.95289 1.4 13.5483 -250 0
38 -0.25282 2.95289 1.4 13.2127 -86.8545 -29.4748
39 0.49718 2.95289 1.4 12.912 -69.0368 -131.634
40 1.24718 2.95289 1.4 12.6487 -60.9337 -147.817
41 1.99718 2.95289 1.4 12.4251 -63.8746 109.562
42 2.74718 2.95289 1.4 12.2435 -62.9676 -179.738
43 3.49718 2.95289 1.4 12.1056 -70.0112 12.6354
44 4.24718 2.95289 1.4 12.0131 -62.0108 -142.401
45 4.99718 2.95289 1.4 11.967 -59.6659 -139.892
46 5.74718 2.95289 1.4 11.9678 -60.188 36.7241
47 6.49718 2.95289 1.4 12.0155 -57.2921 -92.5598
48 7.24718 2.95289 1.4 12.1096 -57.35 141.586
49 7.99718 2.95289 1.4 12.2489 -61.149 83.4798
50 8.74718 2.95289 1.4 12.432 -61.7661 -74.2869
51 9.49718 2.95289 1.4 12.657 -63.2249 -53.0727
52 10.2472 2.95289 1.4 12.9216 -74.7533 -47.3616
53 10.9972 2.95289 1.4 13.2236 -69.547 -9.37904
54 11.7472 2.95289 1.4 13.5603 -68.5701 30.7801
55 12.4972 2.95289 1.4 13.9293 -66.1245 7.77051
56 13.2472 2.95289 1.4 14.3281 -65.1033 -60.6245
57 13.9972 2.95289 1.4 14.7543 -101.765 156.585
58 14.7472 2.95289 1.4 15.2055 -112.483 96.8527
59 15.4972 2.95289 1.4 15.6797 -80.2696 93.9129
60 16.2472 2.95289 1.4 16.1747 -79.9072 137.887
61 16.9972 2.95289 1.4 16.6888 -77.9794 -136.977
62 17.7472 2.95289 1.4 17.2202 -110.449 10.7351
63 18.4972 2.95289 1.4 17.7673 -110.573 124.519
64 19.2472 2.95289 1.4 18.3289 -125.244 -18.3398
65 19.9972 2.95289 1.4 18.9035 -102.242 -166.858
66 20.7472 2.95289 1.4 19.49 -76.3959 -31.1687
67 21.4972 2.95289 1.4 20.0874 -79.1682 -112.951
68 22.2472 2.95289 1.4 20.6948 -76.6874 92.0503
69 22.9972 2.95289 1.4 21.3112 -101.37 164.163
70 23.7472 2.95289 1.4 21.936 -250 0
71 24.4972 2.95289 1.4 22.5684 -250 0
72 25.2472 2.95289 1.4 23.2078 -250 0
73 25.9972 2.95289 1.4 23.8536 -101.209 -88.175
74 26.7472 2.95289 1.4 24.5054 -87.6856 -155.891
75 27.4972 2.95289 1.4 25.1626 -250 0
76 28.2472 2.95289 1.4 25.8249 -250 0
77 28.9972 2.95289 1.4 26.4919 -250 0
78 29.7472 2.95289 1.4 27.1632 -250 0
79 30.4972 2.95289 1.4 27.8385 -250 0
80 -28.0028 3.70289 1.4 35.1957 -141.284 -10.589
81 -27.2528 3.70289 1.4 34.4856 -152.238 -36.5414
82 -26.5028 3.70289 1.4 33.7772 -141.563 -2.98496
83 -25.7528 3.70289 1.4 33.0707 -145.038 -128.685
84 -25.0028 3.70289 1.4 32.3661 -169.845 -68.2782
85 -24.2528 3.70289 1.4 31.6636 -137.047 26.1408
86 -23.5028 3.70289 1.4 30.9633 -131.866 -131.552
87 -22.7528 3.70289 1.4 30.2655 -134.317 -99.568
88 -22.0028 3.70289 1.4 29.5701 -142.032 -150.656
89 -21.2528 3.70289 1.4 28.8775 -139.078 -11.8368
90 -20.5028 3.70289 1.4 28.1879 -107.555 -131.746
91 -19.7528 3.70289 1.4 27.5013 -102.042 113.394
92 -19.0028 3.70289 1.4 26.8182 -106.67 134.33
93 -18.2528 3.70289 1.4 26.1388 -102.823 80.5972
94 -17.5028 3.70289 1.4 25.4633 -103.65 -171.434
95 -16.7528 3.70289 1.4 24.7921 -250 0
96 -16.0028 3.70289 1.4 24.1256 -250 0
97 -15.2528 3.70289 1.4 23.4641 -250 0
98 -14.5028 3.70289 1.4 22.8081 -250 0
99 -13.7528 3.70289 1.4 22.158 -83.2784 -5.18934
100 -13.0028 3.70289 1.4 21.5144 -83.7623 66.3933
101 -12.2528 3.70289 1.4 20.878 -71.1708 90.0253
102 -11.5028 3.70289 1.4 20.2493 -72.6524 125.447
103 -10.7528 3.70289 1.4 19.6291 -71.2526 161.155
104 -10.0028 3.70289 1.4 19.0183 -70.7519 162.067
105 -9.25282 3.70289 1.4 18.4178 -94.2276 -59.35
106 -8.50282 3.70289 1.4 17.8287 -76.3766 -19.5739
107 -7.75282 3.70289 1.4 17.252 -80.7919 -133.814
108 -7.00282 3.70289 1.4 16.689 -69.8716 -53.017
109 -6.25282 3.70289 1.4 16.1413 -69.9579 141.386
110 -5.50282 3.70289 1.4 15.6105 -107.495 -124.509
111 -4.75282 3.70289 1.4 15.0982 -90.2587 -55.2646
112 -4.00282 3.70289 1.4 14.6065 -96.4806 34.6375
113 -3.25282 3.70289 1.4 14.1375 -70.6729 53.5263
114 -2.50282 3.70289 1.4 13.6936 -89.1804 96.0555
115 -1.75282 3.70289 1.4 13.2772 -70.5417 -139.659
116 -1.00282 3.70289 1.4 12.891 -250 0
117 -0.25282 3.70289 1.4 12.5378 -85.5713 15.5113
118 0.49718 3.70289 1.4 12.2205 -66.7533 -3.05169
119 1.24718 3.70289 1.4 11.9419 -73.6007 -51.1315
120 1.99718 3.70289 1.4 11.7048 -62.6874 52.601
121 2.74718 3.70289 1.4 11.5118 -83.4503 47.7615
122 3.49718 3.70289 1.4 11.3651 -61.1628 23.4107
123 4.24718 3.70289 1.4 11.2666 -70.052 74.3285
124 4.99718 3.70289 1.4 11.2174 -65.8097 160.688
125 5.74718 3.70289 1.4 11.2182 -66.6346 -11.0312
126 6.49718 3.70289 1.4 11.2691 -58.1608 -163.745
127 7.24718 3.70289 1.4 11.3693 -53.1739 130.008
128 7.99718 3.70289 1.4 11.5176 -60.4195 99.8588
129 8.74718 3.70289 1.4 11.7122 -60.5176 -120.986
130 9.49718 3.70289 1.4 11.9507 -62.6044 -96.5259
131 10.2472 3.70289 1.4 12.2306 -72.8259 -21.0849
132 10.9972 3.70289 1.4 12.5492 -69.2221 109.634
133 11.7472 3.70289 1.4 12.9036 -71.1009 -169.86
134 12.4972 3.70289 1.4 13.2908 -70.7519 81.2281
135 13.2472 3.70289 1.4 13.7082 -59.9076 -61.8544
136 13.9972 3.70289 1.4 14.1531 -114.35 -60.5743
137 14.7472 3.70289 1.4 14.6229 -102.797 -145.444
138 15.4972 3.70289 1.4 15.1153 -99.0223 -162.47
139 16.2472 3.70289 1.4 15.6282 -89.772 158.336
140 16.9972 3.70289 1.4 16.1597 -78.9824 -27.258
141 17.7472 3.70289 1.4 16.7079 -114.181 -13.9968
142 18.4972 3.70289 1.4 17.2713 -110.855 146.07
143 19.2472 3.70289 1.4 17.8485 -110.006 -82.827
144 19.9972 3.70289 1.4 18.4381 -109.875 33.004
145 20.7472 3.70289 1.4 19.0389 -101.827 -50.332
146 21.4972 3.70289 1.4 19.6501 -75.7438 -165.552
147 22.2472 3.70289 1.4 20.2705 -77.5667 125.158
148 22.9972 3.70289 1.4 20.8995 -74.316 -25.6331
149 23.7472 3.70289 1.4 21.5362 -92.2176 35.7499
150 24.4972 3.70289 1.4 22.18 -250 0
151 25.2472 3.70289 1.4 22.8303 -91.6059 -4.46954
152 25.9972 3.70289 1.4 23.4865 -95.9265 -96.8066
153 26.7472 3.70289 1.4 24.1482 -250 0
154 27.4972 3.70289 1.4 24.8149 -250 0
155 28.2472 3.70289 1.4 25.4862 -250 0
156 28.9972 3.70289 1.4 26.1618 -250 0
157 29.7472 3.70289 1.4 26.8414 -250 0
158 30.4972 3.70289 1.4 27.5246 -250 0
159 -28.0028 4.45289 1.4 34.964 -144.204 137.877
160 -27.2528 4.45289 1.4 34.2491 -139.213 -122.773
161 -26.5028 4.45289 1.4 33.5358 -143.228 -125.675
162 -25.7528 4.45289 1.4 32.824 -172.652 64.0966
163 -25.0028 4.45289 1.4 32.114 -162.307 -107.264
164 -24.2528 4.45289 1.4 31.4059 -139.927 -4.91909
165 -23.5028 4.45289 1.4 30.6997 -132.544 -107.214
166 -22.7528 4.45289 1.4 29.9957 -144.964 65.3555
167 -22.0028 4.45289 1.4 29.294 -144.043 -117.134
168 -21.2528 4.45289 1.4 28.5947 -135.24 6.1106
169 -20.5028 4.45289 1.4 27.898 -104.317 86.6611
170 -19.7528 4.45289 1.4 27.2042 -97.3855 -84.8179
171 -19.0028 4.45289 1.4 26.5135 -105.749 -81.9956
172 -18.2528 4.45289 1.4 25.826 -106.399 132.061
173 -17.5028 4.45289 1.4 25.1421 -104.024 -40.2313
174 -16.7528 4.45289 1.4 24.4621 -250 0
175 -16.0028 4.45289 1.4 23.7863 -250 0
176 -15.2528 4.45289 1.4 23.1151 -250 0
177 -14.5028 4.45289 1.4 22.4489 -250 0
178 -13.7528 4.45289 1.4 21.7881 -89.4123 -77.761
179 -13.0028 4.45289 1.4 21.1333 -91.1103 54.2533
180 -12.2528 4.45289 1.4 20.485 -89.4117 160.139
181 -11.5028 4.45289 1.4 19.8439 -74.4241 -21.8558
182 -10.7528 4.45289 1.4 19.2106 -77.4974 -63.4142
183 -10.0028 4.45289 1.4 18.5861 -70.7833 -30.3412
184 -9.25282 4.45289 1.4 17.9711 -70.1338 37.0729
185 -8.50282 4.45289 1.4 17.3668 -90.3709 -163.018
186 -7.75282 4.45289 1.4 16.7742 -102.544 81.085
187 -7.00282 4.45289 1.4 16.1947 -83.4545 66.7726
188 -6.25282 4.45289 1.4 15.6297 -69.6737 -171.283
189 -5.50282 4.45289 1.4 15.0809 -72.6369 25.2202
190 -4.75282 4.45289 1.4 14.55 -101.49 -37.6054
191 -4.00282 4.45289 1.4 14.0391 -97.8674 115.004
192 -3.25282 4.45289 1.4 13.5505 -85.3264 -126.434
193 -2.50282 4.45289 1.4 13.0866 -76.9309 147.894
194 -1.75282 4.45289 1.4 12.6502 -65.6116 -85.4257
195 -1.00282 4.45289 1.4 12.2443 -87.9344 -92.1713
196 -0.25282 4.45289 1.4 11.8719 -96.2889 56.3838
197 0.49718 4.45289 1.4 11.5363 -64.327 154.039
198 1.24718 4.45289 1.4 11.2407 -70.6519 80.6339
199 1.99718 4.45289 1.4 10.9886 -67.554 68.9034
200 2.74718 4.45289 1.4 10.7827 -75.3178 -3.71436
201 3.49718 4.45289 1.4 10.626 -69.6552 -71.7934
202 4.24718 4.45289 1.4 10.5205 -63.4044 -106.848
203 4.99718 4.45289 1.4 10.4678 -63.5951 -126.352
204 5.74718 4.45289 1.4 10.4687 -70.0681 -44.0771
205 6.49718 4.45289 1.4 10.5232 -58.4724 -16.3908
206 7.24718 4.45289 1.4 10.6305 -53.8369 152.852
207 7.99718 4.45289 1.4 10.7889 -63.7904 -38.7323
208 8.74718 4.45289 1.4 10.9964 -60.4728 -144.773
209 9.49718 4.45289 1.4 11.2501 -58.7635 -178.903
210 10.2472 4.45289 1.4 11.547 -72.76 125.642
211 10.9972 4.45289 1.4 11.8839 -65.1773 -98.5414
212 11.7472 4.45289 1.4 12.2575 -71.644 -157.889
213 12.4972 4.45289 1.4 12.6646 -59.4716 153.027
214 13.2472 4.45289 1.4 13.1019 -59.0604 -113.162
215 13.9972 4.45289 1.4 13.5667 -104.169 162.96
216 14.7472 4.45289 1.4 14.0561 -87.1254 2.97103
217 15.4972 4.45289 1.4 14.5677 -93.9449 6.89388
218 16.2472 4.45289 1.4 15.0992 -112.932 136.625
219 16.9972 4.45289 1.4 15.6487 -108.003 -51.6637
220 17.7472 4.45289 1.4 16.2142 -123.162 -84.749
221 18.4972 4.45289 1.4 16.7942 -116.052 84.2443
222 19.2472 4.45289 1.4 17.3872 -99.4616 -142.149
223 19.9972 4.45289 1.4 17.9919 -109.868 55.2787
224 20.7472 4.45289 1.4 18.6072 -94.9034 -0.658722
225 21.4972 4.45289 1.4 19.232 -101.733 -106.016
226 22.2472 4.45289 1.4 19.8655 -74.7759 75.5892
227 22.9972 4.45289 1.4 20.5069 -77.4965 0.0880052
228 23.7472 4.45289 1.4 21.1554 -75.4271 -144.91
229 24.4972 4.45289 1.4 21.8105 -81.0476 25.3772
230 25.2472 4.45289 1.4 22.4714 -82.3325 153.25
231 25.9972 4.45289 1.4 23.1378 -250 0
232 26.7472 4.45289 1.4 23.8092 -250 0
233 27.4972 4.45289 1.4 24.4852 -250 0
234 28.2472 4.45289 1.4 25.1653 -250 0
235 28.9972 4.45289 1.4 25.8493 -250 0
236 29.7472 4.45289 1.4 26.5369 -250 0
237 30.4972 4.45289 1.4 27.2277 -250 0
238 -28.0028 5.20289 1.4 34.747 -149.842 -144.644
239 -27.2528 5.20289 1.4 34.0275 -142.751 -69.9638
240 -26.5028 5.20289 1.4 33.3094 -148.616 -11.1189
241 -25.7528 5.20289 1.4 32.5927 -144.379 45.5424
242 -25.0028 5.20289 1.4 31.8776 -143.388 37.3431
243 -24.2528 5.20289 1.4 31.1641 -137.171 -56.5926
244 -23.5028 5.20289 1.4 30.4523 -131.97 -137.625
245 -22.7528 5.20289 1.4 29.7424 -140.612 -59.6586
246 -22.0028 5.20289 1.4 29.0346 -145.124 165.958
247 -21.2528 5.20289 1.4 28.3289 -137.069 49.9704
248 -20.5028 5.20289 1.4 27.6255 -97.605 162.458
249 -19.7528 5.20289 1.4 26.9247 -108.642 -132.823
250 -19.0028 5.20289 1.4 26.2266 -104.574 47.0424
251 -18.2528 5.20289 1.4 25.5314 -108.812 134.574
252 -17.5028 5.20289 1.4 24.8394 -107.311 -164.431
253 -16.7528 5.20289 1.4 24.1509 -250 0
254 -16.0028 5.20289 1.4 23.4661 -250 0
255 -15.2528 5.20289 1.4 22.7855 -250 0
256 -14.5028 5.20289 1.4 22.1093 -250 0
257 -13.7528 5.20289 1.4 21.4381 -250 0
258 -13.0028 5.20289 1.4 20.7723 -78.7476 8.00703
259 -12.2528 5.20289 1.4 20.1123 -89.0601 -104.304
260 -11.5028 5.20289 1.4 19.4589 -78.691 -91.3853
261 -10.7528 5.20289 1.4 18.8127 -75.314 -89.5667
262 -10.0028 5.20289 1.4 18.1745 -76.4324 -175.914
263 -9.25282 5.20289 1.4 17.5451 -75.81 -176.2
264 -8.50282 5.20289 1.4 16.9256 -74.3307 -136.244
265 -7.75282 5.20289 1.4 16.317 -111.994 -165.086
266 -7.00282 5.20289 1.4 15.7207 -98.9464 -137.383
267 -6.25282 5.20289 1.4 15.138 -79.4668 -81.9015
268 -5.50282 5.20289 1.4 14.5706 -70.246 80.4298
269 -4.75282 5.20289 1.4 14.0204 -69.2996 -74.8572
270 -4.00282 5.20289 1.4 13.4895 -141.803 5.54245
271 -3.25282 5.20289 1.4 12.9802 -90.1922 99.9146
272 -2.50282 5.20289 1.4 12.4952 -79.4384 21.4275
273 -1.75282 5.20289 1.4 12.0374 -65.3752 -86.9421
274 -1.00282 5.20289 1.4 11.61 -64.6564 81.4141
275 -0.25282 5.20289 1.4 11.2166 -78.2621 163.405
276 0.49718 5.20289 1.4 10.8607 -68.3437 19.8952
277 1.24718 5.20289 1.4 10.5463 -68.1102 -48.2308
278 1.99718 5.20289 1.4 10.2771 -79.8459 17.4925
279 2.74718 5.20289 1.4 10.0567 -73.4018 -0.604262
280 3.49718 5.20289 1.4 9.88847 -78.9868 -151.894
281 4.24718 5.20289 1.4 9.77502 -58.6514 59.1531
282 4.99718 5.20289 1.4 9.71829 -56.2347 153.267
283 5.74718 5.20289 1.4 9.71927 -71.7234 -163.116
284 6.49718 5.20289 1.4 9.77795 -58.269 -101.217
285 7.24718 5.20289 1.4 9.8933 -54.0598 149.019
286 7.99718 5.20289 1.4 10.0634 -55.8321 -2.48367
287 8.74718 5.20289 1.4 10.2855 -68.0347 144.738
288 9.49718 5.20289 1.4 10.5563 -60.007 79.6791
289 10.2472 5.20289 1.4 10.8722 -68.2729 -40.2985
290 10.9972 5.20289 1.4 11.2293 -64.8882 0.655472
291 11.7472 5.20289 1.4 11.624 -68.2415 -75.5032
292 12.4972 5.20289 1.4 12.0524 -67.4486 141.189
293 13.2472 5.20289 1.4 12.5112 -72.3676 -38.3608
294 13.9972 5.20289 1.4 12.9971 -87.7603 172.961
295 14.7472 5.20289 1.4 13.5072 -91.002 170.049
296 15.4972 5.20289 1.4 14.0388 -80.745 -115.597
297 16.2472 5.20289 1.4 14.5896 -111.513 22.836
298 16.9972 5.20289 1.4 15.1575 -113.418 145.995
299 17.7472 5.20289 1.4 15.7407 -80.9481 -66.6748
300 18.4972 5.20289 1.4 16.3375 -99.3287 22.4116
301 19.2472 5.20289 1.4 16.9465 -123.45 -156.551
302 19.9972 5.20289 1.4 17.5664 -92.8298 -100.849
303 20.7472 5.20289 1.4 18.1961 -103.36 -28.7342
304 21.4972 5.20289 1.4 18.8346 -102.451 40.753
305 22.2472 5.20289 1.4 19.481 -107.259 96.66
306 22.9972 5.20289 1.4 20.1346 -87.5943 -110.85
307 23.7472 5.20289 1.4 20.7948 -70.3126 -130.891
308 24.4972 5.20289 1.4 21.4608 -68.8034 169.931
309 25.2472 5.20289 1.4 22.1322 -250 0
310 25.9972 5.20289 1.4 22.8086 -250 0
311 26.7472 5.20289 1.4 23.4893 -103.73 27.778
312 27.4972 5.20289 1.4 24.1742 -250 0
313 28.2472 5.20289 1.4 24.8629 -250 0
314 28.9972 5.20289 1.4 25.555 -250 0
315 29.7472 5.20289 1.4 26.2503 -250 0
316 30.4972 5.20289 1.4 26.9485 -250 0
317 -28.0028 5.95289 1.4 34.5449 -167.621 35.3984
318 -27.2528 5.95289 1.4 33.8211 -153.031 -133.36
319 -26.5028 5.95289 1.4 33.0985 -142.889 151.877
320 -25.7528 5.95289 1.4 32.3772 -149.332 -170.845
321 -25.0028 5.95289 1.4 31.6572 -117.139 -155.166
322 -24.2528 5.95289 1.4 30.9386 -132.81 -131.448
323 -23.5028 5.95289 1.4 30.2215 -134.636 -76.3002
324 -22.7528 5.95289 1.4 29.5061 -136.544 -46.3129
325 -22.0028 5.95289 1.4 28.7924 -137.369 -75.1999
326 -21.2528 5.95289 1.4 28.0806 -148.091 -140.439
327 -20.5028 5.95289 1.4 27.3709 -85.5443 169.659
328 -19.7528 5.95289 1.4 26.6634 -119.275 36.5855
329 -19.0028 5.95289 1.4 25.9582 -106.752 25.8239
330 -18.2528 5.95289 1.4 25.2557 -113.243 33.8652
331 -17.5028 5.95289 1.4 24.5559 -104.76 -57.0788
332 -16.7528 5.95289 1.4 23.8592 -250 0
333 -16.0028 5.95289 1.4 23.1658 -250 0
334 -15.2528 5.95289 1.4 22.4761 -250 0
335 -14.5028 5.95289 1.4 21.7903 -250 0
336 -13.7528 5.95289 1.4 21.1089 -250 0
337 -13.0028 5.95289 1.4 20.4324 -105.196 -56.727
338 -12.2528 5.95289 1.4 19.7611 -75.0497 106.313
339 -11.5028 5.95289 1.4 19.0957 -81.3815 -126.987
340 -10.7528 5.95289 1.4 18.4368 -86.2076 0.0724685
341 -10.0028 5.95289 1.4 17.7851 -69.3239 135.099
342 -9.25282 5.95289 1.4 17.1414 -87.2064 133.879
343 -8.50282 5.95289 1.4 16.5067 -83.1872 -138.563
344 -7.75282 5.95289 1.4 15.8821 -97.4687 -30.0318
345 -7.00282 5.95289 1.4 15.2687 -83.5074 76.1992
346 -6.25282 5.95289 1.4 14.6681 -91.3236 117.302
347 -5.50282 5.95289 1.4 14.0818 -84.6499 93.5156
348 -4.75282 5.95289 1.4 13.5117 -68.15 -38.9087
349 -4.00282 5.95289 1.4 12.96 -68.3656 175.535
350 -3.25282 5.95289 1.4 12.429 -114.886 81.3806
351 -2.50282 5.95289 1.4 11.9216 -94.4255 -177.718
352 -1.75282 5.95289 1.4 11.4409 -76.2296 131.616
353 -1.00282 5.95289 1.4 10.9903 -69.8316 133.516
354 -0.25282 5.95289 1.4 10.5739 -63.8777 -83.2583
355 0.49718 5.95289 1.4 10.1956 -67.5753 106.152
356 1.24718 5.95289 1.4 9.86001 -72.2011 -10.5006
357 1.99718 5.95289 1.4 9.57152 -72.1746 -51.8484
358 2.74718 5.95289 1.4 9.33451 -80.4105 18.9469
359 3.49718 5.95289 1.4 9.15298 -67.1287 -172.37
360 4.24718 5.95289 1.4 9.03029 -58.0793 55.5772
361 4.99718 5.95289 1.4 8.96885 -60.2778 82.6029
362 5.74718 5.95289 1.4 8.96992 -67.1738 12.0996
363 6.49718 5.95289 1.4 9.03347 -63.5469 158.17
364 7.24718 5.95289 1.4 9.1582 -56.6565 137.534
365 7.99718 5.95289 1.4 9.34167 -53.1636 14.4615
366 8.74718 5.95289 1.4 9.58049 -58.9143 123.763
367 9.49718 5.95289 1.4 9.87066 -63.567 -46.52
368 10.2472 5.95289 1.4 10.2078 -66.8584 159.922
369 10.9972 5.95289 1.4 10.5874 -66.5459 109.393
370 11.7472 5.95289 1.4 11.0051 -63.7608 -19.9092
371 12.4972 5.95289 1.4 11.4567 -59.5404 122.993
372 13.2472 5.95289 1.4 11.9384 -58.0034 165.719
373 13.9972 5.95289 1.4 12.4467 -106.653 -18.1553
374 14.7472 5.95289 1.4 12.9784 -96.6389 123.697
375 15.4972 5.95289 1.4 13.5308 -250 0
376 16.2472 5.95289 1.4 14.1015 -250 0
377 16.9972 5.95289 1.4 14.6883 -250 0
378 17.7472 5.95289 1.4 15.2894 -100.074 -85.5959
379 18.4972 5.95289 1.4 15.9031 -82.0984 115.898
380 19.2472 5.95289 1.4 16.5281 -95.0701 -168.622
381 19.9972 5.95289 1.4 17.1631 -113.015 -27.3333
382 20.7472 5.95289 1.4 17.8071 -100.795 163.407
383 21.4972 5.95289 1.4 18.459 -114.871 -82.9857
384 22.2472 5.95289 1.4 19.1182 -110.012 91.1986
385 22.9972 5.95289 1.4 19.7838 -84.398 56.8129
386 23.7472 5.95289 1.4 20.4553 -68.3204 87.0517
387 24.4972 5.95289 1.4 21.132 -69.058 153.454
388 25.2472 5.95289 1.4 21.8136 -115.139 -54.4282
389 25.9972 5.95289 1.4 22.4995 -101.043 -177.225
390 26.7472 5.95289 1.4 23.1893 -99.4723 47.301
391 27.4972 5.95289 1.4 23.8828 -250 0
392 28.2472 5.95289 1.4 24.5796 -250 0
393 28.9972 5.95289 1.4 25.2795 -250 0
394 29.7472 5.95289 1.4 25.9821 -250 0
395 30.4972 5.95289 1.4 26.6874 -250 0
396 -28.0028 6.70289 1.4 34.358 -170.916 179.23
397 -27.2528 6.70289 1.4 33.6302 -169.234 31.7178
398 -26.5028 6.70289 1.4 32.9034 -116.468 115.483
399 -25.7528 6.70289 1.4 32.1777 -118.336 -37.5539
400 -25.0028 6.70289 1.4 31.4531 -106.274 133.824
401 -24.2528 6.70289 1.4 30.7297 -134.389 98.4749
402 -23.5028 6.70289 1.4 30.0077 -138.065 -171.158
403 -22.7528 6.70289 1.4 29.287 -136.825 10.7212
404 -22.0028 6.70289 1.4 28.5679 -144.473 -16.466
405 -21.2528 6.70289 1.4 27.8503 -145.036 172.73
406 -20.5028 6.70289 1.4 27.1346 -113.147 -161.16
407 -19.7528 6.70289 1.4 26.4207 -85.5494 67.665
408 -19.0028 6.70289 1.4 25.7089 -109.212 -143.598
409 -18.2528 6.70289 1.4 24.9994 -101.147 43.5899
410 -17.5028 6.70289 1.4 24.2922 -100.683 92.0129
411 -16.7528 6.70289 1.4 23.5877 -250 0
412 -16.0028 6.70289 1.4 22.8861 -250 0
413 -15.2528 6.70289 1.4 22.1877 -250 0
414 -14.5028 6.70289 1.4 21.4928 -250 0
415 -13.7528 6.70289 1.4 20.8016 -90.8018 -69.1901
416 -13.0028 6.70289 1.4 20.1147 -106.084 148.406
417 -12.2528 6.70289 1.4 19.4325 -79.4336 -116.751
